
Integration time [ms]:  20,000
Averaging Nr. [scans]: 2
Smoothing Nr. [pixels]: 0
Data measured with spectrometer [name]: 1804341U2
Wave   ;Sample   ;Dark     ;Reference;Scope Corrected for Dark
[nm]   ;[counts] ;[counts] ;[counts] 

 317,76;   24,000;  -48,000;    0,000;72,00000
 317,78;   20,500;  106,000;    0,000;-85,50000
 317,80;  -19,500; -160,000;    0,000;140,50000
 317,82;   -8,000;  812,000;    0,000;-820,00000
 317,84;   32,000; -344,000;    0,000;376,00000
 317,86;   -6,500; -306,000;    0,000;299,50000
 317,88;    9,000;  103,000;    0,000;-94,00000
 317,90;  -39,500;  136,000;    0,000;-175,50000
 317,92;  -63,000; -446,000;    0,000;383,00000
 317,94;   -6,500; -234,000;    0,000;227,50000
 317,96;  -17,500; -147,000;    0,000;129,50000
 317,98;   -4,000; -180,000;    0,000;176,00000
 318,00;  -47,000; -512,000;    0,000;465,00000
 318,02;    2,000; -183,000;    0,000;185,00000
 318,04;   20,500; -401,000;    0,000;421,50000
 318,05;   13,000;  125,000;    0,000;-112,00000
 318,07;   20,000; -350,000;    0,000;370,00000
 318,09;  -20,000;  -52,000;    0,000;32,00000
 318,11;  -12,500;  716,000;    0,000;-728,50000
 318,13;    3,000;  564,000;    0,000;-561,00000
 318,15;    4,000;  -86,000;    0,000;90,00000
 318,17;  -62,500; -375,000;    0,000;312,50000
 318,19;   -8,000;   -2,000;    0,000;-6,00000
 318,21;   -5,000;  -38,000;    0,000;33,00000
 318,23;    3,500; -386,000;    0,000;389,50000
 318,25;  -10,500;  -79,000;    0,000;68,50000
 318,27;   14,500;   32,000;    0,000;-17,50000
 318,29;   12,500;  -73,000;    0,000;85,50000
 318,30;  -24,000; -199,000;    0,000;175,00000
 318,32;  -43,000; -167,000;    0,000;124,00000
 318,34;   63,500; -270,000;    0,000;333,50000
 318,36;   24,000;  398,000;    0,000;-374,00000
 318,38;  -62,000; -393,000;    0,000;331,00000
 318,40;  -47,500;  -61,000;    0,000;13,50000
 318,42;   -2,500;  196,000;    0,000;-198,50000
 318,44;  -30,000;  -25,000;    0,000;-5,00000
 318,46;  -24,500; -275,000;    0,000;250,50000
 318,48;  -19,500; -552,000;    0,000;532,50000
 318,50;   26,000; -125,000;    0,000;151,00000
 318,52;    4,000;  368,000;    0,000;-364,00000
 318,54;   11,500; -319,000;    0,000;330,50000
 318,55;  -83,500; -329,000;    0,000;245,50000
 318,57;  -19,000;  200,000;    0,000;-219,00000
 318,59;  -10,500; -140,000;    0,000;129,50000
 318,61;  -16,000; -132,000;    0,000;116,00000
 318,63;  -40,500; -371,000;    0,000;330,50000
 318,65;   23,000;  259,000;    0,000;-236,00000
 318,67;  -65,000; -242,000;    0,000;177,00000
 318,69;   -9,500; -256,000;    0,000;246,50000
 318,71;   -5,500; -336,000;    0,000;330,50000
 318,73;   40,500;  -96,000;    0,000;136,50000
 318,75;  -25,000;   84,000;    0,000;-109,00000
 318,77;   10,000; -295,000;    0,000;305,00000
 318,79;  -15,500;   84,000;    0,000;-99,50000
 318,80;   18,000;  258,000;    0,000;-240,00000
 318,82;   26,500;  212,000;    0,000;-185,50000
 318,84;   46,500; -400,000;    0,000;446,50000
 318,86;   38,500;  107,000;    0,000;-68,50000
 318,88;   33,000;  -38,000;    0,000;71,00000
 318,90;    8,500;   61,000;    0,000;-52,50000
 318,92;  -28,000; -164,000;    0,000;136,00000
 318,94;  -27,000;  182,000;    0,000;-209,00000
 318,96;  -13,000; -149,000;    0,000;136,00000
 318,98;   -4,000;  219,000;    0,000;-223,00000
 319,00;   60,000; -310,000;    0,000;370,00000
 319,02;   -7,500; -378,000;    0,000;370,50000
 319,03;    9,500; -217,000;    0,000;226,50000
 319,05;  -40,000; -200,000;    0,000;160,00000
 319,07;   -1,500; -111,000;    0,000;109,50000
 319,09;  -26,500;  -41,000;    0,000;14,50000
 319,11;    0,000;  193,000;    0,000;-193,00000
 319,13;    8,000;  352,000;    0,000;-344,00000
 319,15;   22,500; -444,000;    0,000;466,50000
 319,17;   15,000; -219,000;    0,000;234,00000
 319,19;   -7,500;  119,000;    0,000;-126,50000
 319,21;   23,500;  357,000;    0,000;-333,50000
 319,23;  -16,000; -472,000;    0,000;456,00000
 319,25;  -17,000; -370,000;    0,000;353,00000
 319,26;  -28,000;   46,000;    0,000;-74,00000
 319,28;    6,000;  240,000;    0,000;-234,00000
 319,30;   24,500; -496,000;    0,000;520,50000
 319,32;   16,500;  -20,000;    0,000;36,50000
 319,34;  -32,500;  391,000;    0,000;-423,50000
 319,36;  -66,500;  425,000;    0,000;-491,50000
 319,38;   -3,500; -542,000;    0,000;538,50000
 319,40;    4,500;  -82,000;    0,000;86,50000
 319,42;  -26,000;   10,000;    0,000;-36,00000
 319,44;  -24,000;   82,000;    0,000;-106,00000
 319,46;  -13,500;  108,000;    0,000;-121,50000
 319,47;  -17,500;  191,000;    0,000;-208,50000
 319,49;   12,000; -147,000;    0,000;159,00000
 319,51;  -16,500;   55,000;    0,000;-71,50000
 319,53;    0,000; -665,000;    0,000;665,00000
 319,55;   10,000; -386,000;    0,000;396,00000
 319,57;  -37,000;  163,000;    0,000;-200,00000
 319,59;   19,500; -125,000;    0,000;144,50000
 319,61;   61,500; -343,000;    0,000;404,50000
 319,63;  -10,500; -308,000;    0,000;297,50000
 319,65;  -69,000;  297,000;    0,000;-366,00000
 319,67;  -61,000;  114,000;    0,000;-175,00000
 319,68;   30,500; -225,000;    0,000;255,50000
 319,70;   20,500;   77,000;    0,000;-56,50000
 319,72;  -29,500; -352,000;    0,000;322,50000
 319,74;  -24,000; -133,000;    0,000;109,00000
 319,76;   -1,500; -199,000;    0,000;197,50000
 319,78;  -37,500;   36,000;    0,000;-73,50000
 319,80;   -7,000;  -32,000;    0,000;25,00000
 319,82;  -21,500;  762,000;    0,000;-783,50000
 319,84;   -1,500; -149,000;    0,000;147,50000
 319,86;  -34,000;  -75,000;    0,000;41,00000
 319,88;   -6,000;   48,000;    0,000;-54,00000
 319,89;   46,000;   84,000;    0,000;-38,00000
 319,91;  -23,000; -359,000;    0,000;336,00000
 319,93;  -18,500;   62,000;    0,000;-80,50000
 319,95;   -1,500; -240,000;    0,000;238,50000
 319,97;   37,500;  268,000;    0,000;-230,50000
 319,99;   -2,500; -440,000;    0,000;437,50000
 320,01;  -36,000; -245,000;    0,000;209,00000
 320,03;   42,500;  -67,000;    0,000;109,50000
 320,05;   30,000;  888,000;    0,000;-858,00000
 320,07;   32,500; -170,000;    0,000;202,50000
 320,08;  -32,000;  304,000;    0,000;-336,00000
 320,10;   34,000;   57,000;    0,000;-23,00000
 320,12;  -12,000;  183,000;    0,000;-195,00000
 320,14;  -29,500; -316,000;    0,000;286,50000
 320,16;   26,000; -353,000;    0,000;379,00000
 320,18;    8,000;  -96,000;    0,000;104,00000
 320,20;   13,500;  597,000;    0,000;-583,50000
 320,22;   -3,000; -513,000;    0,000;510,00000
 320,24;   38,500;  232,000;    0,000;-193,50000
 320,26;  -19,000; -127,000;    0,000;108,00000
 320,28;  -12,500; -100,000;    0,000;87,50000
 320,29;   21,500; -352,000;    0,000;373,50000
 320,31;  -22,000;   80,000;    0,000;-102,00000
 320,33;  -25,000;   24,000;    0,000;-49,00000
 320,35;  -10,000;  691,000;    0,000;-701,00000
 320,37;   27,500; -110,000;    0,000;137,50000
 320,39;   29,000;  -62,000;    0,000;91,00000
 320,41;    9,000;  -60,000;    0,000;69,00000
 320,43;   70,000;  282,000;    0,000;-212,00000
 320,45;  -21,000; -493,000;    0,000;472,00000
 320,46;   17,000; -447,000;    0,000;464,00000
 320,48;   -4,500;  157,000;    0,000;-161,50000
 320,50;  -50,000;  154,000;    0,000;-204,00000
 320,52;  -20,000;  -45,000;    0,000;25,00000
 320,54;   58,000;   92,000;    0,000;-34,00000
 320,56;   11,500;  326,000;    0,000;-314,50000
 320,58;   -6,500;  929,000;    0,000;-935,50000
 320,60;  -47,000;  -33,000;    0,000;-14,00000
 320,62;  -29,500;   20,000;    0,000;-49,50000
 320,64;   16,000;  104,000;    0,000;-88,00000
 320,65;    0,000;   85,000;    0,000;-85,00000
 320,67;  -57,500; -596,000;    0,000;538,50000
 320,69;  -47,000; -216,000;    0,000;169,00000
 320,71;   38,000;  306,000;    0,000;-268,00000
 320,73;   12,500;   26,000;    0,000;-13,50000
 320,75;  -11,500; -446,000;    0,000;434,50000
 320,77;  -25,000; -470,000;    0,000;445,00000
 320,79;   18,500;   12,000;    0,000; 6,50000
 320,81;   21,500;  115,000;    0,000;-93,50000
 320,83;  -70,000; -125,000;    0,000;55,00000
 320,84;   15,000;  189,000;    0,000;-174,00000
 320,86;   49,000;  431,000;    0,000;-382,00000
 320,88;  -26,500;   28,000;    0,000;-54,50000
 320,90;  -15,500; -115,000;    0,000;99,50000
 320,92;   26,500;   70,000;    0,000;-43,50000
 320,94;    6,000;  -54,000;    0,000;60,00000
 320,96;    9,000;  198,000;    0,000;-189,00000
 320,98;   34,500; -478,000;    0,000;512,50000
 321,00;  -15,000; -187,000;    0,000;172,00000
 321,01;  -58,000;  609,000;    0,000;-667,00000
 321,03;  -15,500;  -89,000;    0,000;73,50000
 321,05;  -37,500;  -19,000;    0,000;-18,50000
 321,07;  -24,500; -291,000;    0,000;266,50000
 321,09;  -28,000;  402,000;    0,000;-430,00000
 321,11;    8,500;  353,000;    0,000;-344,50000
 321,13;   26,000; -477,000;    0,000;503,00000
 321,15;  -17,500;  -21,000;    0,000; 3,50000
 321,17;  -17,500;  188,000;    0,000;-205,50000
 321,18;   -6,500;    1,000;    0,000;-7,50000
 321,20;  -13,000; -428,000;    0,000;415,00000
 321,22;   11,500;  264,000;    0,000;-252,50000
 321,24;  -55,000;  135,000;    0,000;-190,00000
 321,26;   49,000;  204,000;    0,000;-155,00000
 321,28;  -22,500; -288,000;    0,000;265,50000
 321,30;   40,000;   64,000;    0,000;-24,00000
 321,32;   26,500; -164,000;    0,000;190,50000
 321,34;   12,000;  362,000;    0,000;-350,00000
 321,35;   12,500; -448,000;    0,000;460,50000
 321,37;   83,000;  -48,000;    0,000;131,00000
 321,39;   -9,000; -366,000;    0,000;357,00000
 321,41;  -30,500;  434,000;    0,000;-464,50000
 321,43;    6,000; -103,000;    0,000;109,00000
 321,45;  -52,500; -164,000;    0,000;111,50000
 321,47;  -19,500;  276,000;    0,000;-295,50000
 321,49;  -57,000;  179,000;    0,000;-236,00000
 321,51;   51,500; -603,000;    0,000;654,50000
 321,52;   31,500;  347,000;    0,000;-315,50000
 321,54;   37,500;   50,000;    0,000;-12,50000
 321,56;   14,000;  140,000;    0,000;-126,00000
 321,58;  -30,000; -423,000;    0,000;393,00000
 321,60;    2,000; -151,000;    0,000;153,00000
 321,62;   -1,500; -173,000;    0,000;171,50000
 321,64;   11,500;  441,000;    0,000;-429,50000
 321,66;    1,500; -410,000;    0,000;411,50000
 321,67;  -22,500; -251,000;    0,000;228,50000
 321,69;    5,000;  -86,000;    0,000;91,00000
 321,71;   26,500;   72,000;    0,000;-45,50000
 321,73;  -45,500;  318,000;    0,000;-363,50000
 321,75;   15,000;  683,000;    0,000;-668,00000
 321,77;   -6,500;  134,000;    0,000;-140,50000
 321,79;    5,000;  425,000;    0,000;-420,00000
 321,81;   30,000; -274,000;    0,000;304,00000
 321,83;   26,500; -225,000;    0,000;251,50000
 321,84;  -36,000;  207,000;    0,000;-243,00000
 321,86;  -20,000;  607,000;    0,000;-627,00000
 321,88;  -13,000;  172,000;    0,000;-185,00000
 321,90;    5,500;  189,000;    0,000;-183,50000
 321,92;   49,000;   99,000;    0,000;-50,00000
 321,94;  -20,500;  -14,000;    0,000;-6,50000
 321,96;   35,500; -151,000;    0,000;186,50000
 321,98;  -45,000;  142,000;    0,000;-187,00000
 321,99;   36,500;    2,000;    0,000;34,50000
 322,01;  -61,000;  114,000;    0,000;-175,00000
 322,03;   -0,500; -247,000;    0,000;246,50000
 322,05;  -14,000; -281,000;    0,000;267,00000
 322,07;   12,500;   95,000;    0,000;-82,50000
 322,09;   -9,500;   -3,000;    0,000;-6,50000
 322,11;   25,500; -277,000;    0,000;302,50000
 322,13;  -25,500;  -25,000;    0,000;-0,50000
 322,14;   64,000;  -61,000;    0,000;125,00000
 322,16;    2,500;  -28,000;    0,000;30,50000
 322,18;   22,000; -616,000;    0,000;638,00000
 322,20;   73,000;  -86,000;    0,000;159,00000
 322,22;   13,000;  105,000;    0,000;-92,00000
 322,24;    6,500;  772,000;    0,000;-765,50000
 322,26;  -51,000;  -38,000;    0,000;-13,00000
 322,28;  -67,500;   24,000;    0,000;-91,50000
 322,29;   20,500;  383,000;    0,000;-362,50000
 322,31;  -31,000;  157,000;    0,000;-188,00000
 322,33;  -13,000; -348,000;    0,000;335,00000
 322,35;  -53,000;  235,000;    0,000;-288,00000
 322,37;  -39,000;   92,000;    0,000;-131,00000
 322,39;    7,500;  354,000;    0,000;-346,50000
 322,41;   28,000; -450,000;    0,000;478,00000
 322,43;  -20,000; -280,000;    0,000;260,00000
 322,44;  -64,500;  -11,000;    0,000;-53,50000
 322,46;  -34,000;   80,000;    0,000;-114,00000
 322,48;   42,500;  -77,000;    0,000;119,50000
 322,50;  -20,500;   91,000;    0,000;-111,50000
 322,52;   -9,500;  404,000;    0,000;-413,50000
 322,54;   35,500;  131,000;    0,000;-95,50000
 322,56;   22,500; -218,000;    0,000;240,50000
 322,58;   16,500;  104,000;    0,000;-87,50000
 322,59;  -23,500; -237,000;    0,000;213,50000
 322,61;    0,500;  978,000;    0,000;-977,50000
 322,63;   42,500; -213,000;    0,000;255,50000
 322,65;  -37,000;  137,000;    0,000;-174,00000
 322,67;  -27,000;  126,000;    0,000;-153,00000
 322,69;  -34,000;  594,000;    0,000;-628,00000
 322,71;    3,000; -243,000;    0,000;246,00000
 322,73;   16,500;    2,000;    0,000;14,50000
 322,74;   -8,500;  274,000;    0,000;-282,50000
 322,76;  -51,000;  455,000;    0,000;-506,00000
 322,78;  -16,000; -103,000;    0,000;87,00000
 322,80;  -36,000;  143,000;    0,000;-179,00000
 322,82;    0,000;  305,000;    0,000;-305,00000
 322,84;  -60,500;  649,000;    0,000;-709,50000
 322,86;   12,000;   69,000;    0,000;-57,00000
 322,87;   -5,500; -149,000;    0,000;143,50000
 322,89;   27,500;  121,000;    0,000;-93,50000
 322,91;    2,500;  477,000;    0,000;-474,50000
 322,93;  -18,500; -314,000;    0,000;295,50000
 322,95;  -33,500; 1423,000;    0,000;-1456,50000
 322,97;   51,000;  157,000;    0,000;-106,00000
 322,99;  -38,500;  385,000;    0,000;-423,50000
 323,01;    1,000;  224,000;    0,000;-223,00000
 323,02;  -41,500;  277,000;    0,000;-318,50000
 323,04;   -7,000;  481,000;    0,000;-488,00000
 323,06;    7,000;  793,000;    0,000;-786,00000
 323,08;  -29,500;  -10,000;    0,000;-19,50000
 323,10;    0,000;  -22,000;    0,000;22,00000
 323,12;  -39,000;  816,000;    0,000;-855,00000
 323,14;   13,000;  385,000;    0,000;-372,00000
 323,15;  -23,500; -334,000;    0,000;310,50000
 323,17;  -31,500;  557,000;    0,000;-588,50000
 323,19;   -4,500;  321,000;    0,000;-325,50000
 323,21;   31,000;  224,000;    0,000;-193,00000
 323,23;   15,000; -234,000;    0,000;249,00000
 323,25;  -18,000; -173,000;    0,000;155,00000
 323,27;   12,000;  278,000;    0,000;-266,00000
 323,29;  -14,000;  721,000;    0,000;-735,00000
 323,30;   50,000; -152,000;    0,000;202,00000
 323,32;  -23,000;  699,000;    0,000;-722,00000
 323,34;   25,000;  313,000;    0,000;-288,00000
 323,36;  -56,500;  349,000;    0,000;-405,50000
 323,38;  -20,500;   64,000;    0,000;-84,50000
 323,40;   22,500;  314,000;    0,000;-291,50000
 323,42;   24,500;  251,000;    0,000;-226,50000
 323,43;   24,000;  179,000;    0,000;-155,00000
 323,45;  -11,500; -164,000;    0,000;152,50000
 323,47;    5,500;  644,000;    0,000;-638,50000
 323,49;    3,000;   55,000;    0,000;-52,00000
 323,51;  -22,500;  696,000;    0,000;-718,50000
 323,53;  -25,000;  161,000;    0,000;-186,00000
 323,55;   23,000;   74,000;    0,000;-51,00000
 323,56;   -6,500;  298,000;    0,000;-304,50000
 323,58;    1,000;  576,000;    0,000;-575,00000
 323,60;   39,500;  212,000;    0,000;-172,50000
 323,62;  -19,000;  599,000;    0,000;-618,00000
 323,64;   -0,500;  623,000;    0,000;-623,50000
 323,66;   15,000;  997,000;    0,000;-982,00000
 323,68;   -1,000; -264,000;    0,000;263,00000
 323,69;  -12,500;  258,000;    0,000;-270,50000
 323,71;    5,000; 1283,000;    0,000;-1278,00000
 323,73;   12,500;  424,000;    0,000;-411,50000
 323,75;   31,000; -188,000;    0,000;219,00000
 323,77;   22,000;  528,000;    0,000;-506,00000
 323,79;   -6,500;  551,000;    0,000;-557,50000
 323,81;    1,000; 1160,000;    0,000;-1159,00000
 323,82;   20,000; -258,000;    0,000;278,00000
 323,84;   37,000;  334,000;    0,000;-297,00000
 323,86;   40,000;  892,000;    0,000;-852,00000
 323,88;   46,500;  928,000;    0,000;-881,50000
 323,90;    8,000; -260,000;    0,000;268,00000
 323,92;   13,500;  577,000;    0,000;-563,50000
 323,94;   18,500;  335,000;    0,000;-316,50000
 323,95;   47,500;  870,000;    0,000;-822,50000
 323,97;  -27,000;  220,000;    0,000;-247,00000
 323,99;   -9,500;  378,000;    0,000;-387,50000
 324,01;  -16,500;   60,000;    0,000;-76,50000
 324,03;   24,000;  612,000;    0,000;-588,00000
 324,05;   11,500; -115,000;    0,000;126,50000
 324,06;    6,000;  812,000;    0,000;-806,00000
 324,08;  -16,000;  659,000;    0,000;-675,00000
 324,10;   -5,500;  578,000;    0,000;-583,50000
 324,12;   16,000;  398,000;    0,000;-382,00000
 324,14;   17,000;  177,000;    0,000;-160,00000
 324,16;    2,500;  360,000;    0,000;-357,50000
 324,18;   34,500;  856,000;    0,000;-821,50000
 324,19;   69,000;  465,000;    0,000;-396,00000
 324,21;   60,500;  377,000;    0,000;-316,50000
 324,23;  -21,000;  288,000;    0,000;-309,00000
 324,25;   18,000;  386,000;    0,000;-368,00000
 324,27;  -13,000;  518,000;    0,000;-531,00000
 324,29;   -8,000;  103,000;    0,000;-111,00000
 324,31;   84,000;  612,000;    0,000;-528,00000
 324,32;    9,000;  876,000;    0,000;-867,00000
 324,34;   12,000; -271,000;    0,000;283,00000
 324,36;   34,000;  295,000;    0,000;-261,00000
 324,38;  -10,500;  745,000;    0,000;-755,50000
 324,40;   -7,500;  734,000;    0,000;-741,50000
 324,42;   -4,000;  -68,000;    0,000;64,00000
 324,43;  -27,500;  929,000;    0,000;-956,50000
 324,45;    4,000;  261,000;    0,000;-257,00000
 324,47;  -11,000;  837,000;    0,000;-848,00000
 324,49;   39,000;  357,000;    0,000;-318,00000
 324,51;  -13,500;  684,000;    0,000;-697,50000
 324,53;   84,000;  664,000;    0,000;-580,00000
 324,55;   67,500;  797,000;    0,000;-729,50000
 324,56;   66,000;   12,000;    0,000;54,00000
 324,58;    4,000;  435,000;    0,000;-431,00000
 324,60;   -2,000;  404,000;    0,000;-406,00000
 324,62;   50,500;  976,000;    0,000;-925,50000
 324,64;   20,500;  418,000;    0,000;-397,50000
 324,66;   62,500; 1184,000;    0,000;-1121,50000
 324,67;   47,500;  491,000;    0,000;-443,50000
 324,69;   51,500;  746,000;    0,000;-694,50000
 324,71;   77,000;   48,000;    0,000;29,00000
 324,73;    2,500;  403,000;    0,000;-400,50000
 324,75;   84,000;  378,000;    0,000;-294,00000
 324,77;   63,500; 1098,000;    0,000;-1034,50000
 324,79;   27,500;  123,000;    0,000;-95,50000
 324,80;   67,000;  396,000;    0,000;-329,00000
 324,82;   73,000;   79,000;    0,000;-6,00000
 324,84;   56,500;  575,000;    0,000;-518,50000
 324,86;   91,500;  213,000;    0,000;-121,50000
 324,88;   55,500;  564,000;    0,000;-508,50000
 324,90;   34,500;  520,000;    0,000;-485,50000
 324,91;   16,000;  594,000;    0,000;-578,00000
 324,93;   65,000;  537,000;    0,000;-472,00000
 324,95;   90,000;  367,000;    0,000;-277,00000
 324,97;   79,500;  250,000;    0,000;-170,50000
 324,99;   32,500;  238,000;    0,000;-205,50000
 325,01;   43,500;  221,000;    0,000;-177,50000
 325,02;   80,000;  733,000;    0,000;-653,00000
 325,04;   71,500;  189,000;    0,000;-117,50000
 325,06;  132,000;  425,000;    0,000;-293,00000
 325,08;  153,000;  333,000;    0,000;-180,00000
 325,10;  138,500;  369,000;    0,000;-230,50000
 325,12;  195,500;  350,000;    0,000;-154,50000
 325,13;  317,500;  807,000;    0,000;-489,50000
 325,15;  572,500;  262,000;    0,000;310,50000
 325,17;  493,000; 1127,000;    0,000;-634,00000
 325,19;  291,000;  892,000;    0,000;-601,00000
 325,21;  188,500;  567,000;    0,000;-378,50000
 325,23;   68,500;  115,000;    0,000;-46,50000
 325,25;   47,500;  427,000;    0,000;-379,50000
 325,26;   55,500;  479,000;    0,000;-423,50000
 325,28;   74,000;  688,000;    0,000;-614,00000
 325,30;  113,000;  359,000;    0,000;-246,00000
 325,32;   43,000;  364,000;    0,000;-321,00000
 325,34;   82,500;  483,000;    0,000;-400,50000
 325,36;   56,000; 1118,000;    0,000;-1062,00000
 325,37;   18,500;  110,000;    0,000;-91,50000
 325,39;    4,000;  556,000;    0,000;-552,00000
 325,41;   66,500;  434,000;    0,000;-367,50000
 325,43;   63,000;  694,000;    0,000;-631,00000
 325,45;   83,000; -251,000;    0,000;334,00000
 325,47;    3,000;  547,000;    0,000;-544,00000
 325,48;   -3,000;  420,000;    0,000;-423,00000
 325,50;   45,500;  735,000;    0,000;-689,50000
 325,52;   14,500;  331,000;    0,000;-316,50000
 325,54;   30,000;  333,000;    0,000;-303,00000
 325,56;  -15,000;  355,000;    0,000;-370,00000
 325,58;   78,000; 1248,000;    0,000;-1170,00000
 325,59;   16,500; 1207,000;    0,000;-1190,50000
 325,61;   49,500;  172,000;    0,000;-122,50000
 325,63;   42,500;  424,000;    0,000;-381,50000
 325,65;  -26,000; 1794,000;    0,000;-1820,00000
 325,67;   18,000;  596,000;    0,000;-578,00000
 325,69;   50,000;  452,000;    0,000;-402,00000
 325,70;   73,500;  -52,000;    0,000;125,50000
 325,72;   10,000; 1728,000;    0,000;-1718,00000
 325,74;   47,500; -131,000;    0,000;178,50000
 325,76;   78,500;  714,000;    0,000;-635,50000
 325,78;  134,500;  712,000;    0,000;-577,50000
 325,79;  154,000; 1352,000;    0,000;-1198,00000
 325,81;  339,500;  702,000;    0,000;-362,50000
 325,83;  693,000; 1297,000;    0,000;-604,00000
 325,85; 1324,000;  443,000;    0,000;881,00000
 325,87; 2451,000; 1008,000;    0,000;1443,00000
 325,89; 4245,000;  148,000;    0,000;4097,00000
 325,90; 6855,000; 1665,000;    0,000;5190,00000
 325,92; 9500,500;  784,000;    0,000;8716,50000
 325,94;11661,500; 1308,000;    0,000;10353,50000
 325,96;14341,500;  116,000;    0,000;14225,50000
 325,98;21874,000;  664,000;    0,000;21210,00000
 326,00;36885,500;  554,000;    0,000;36331,50000
 326,01;52233,000; 1364,000;    0,000;50869,00000
 326,03;44045,500;  318,000;    0,000;43727,50000
 326,05;21228,000;  486,000;    0,000;20742,00000
 326,07; 9071,500;  570,000;    0,000;8501,50000
 326,09; 3872,000; 1289,000;    0,000;2583,00000
 326,11; 2312,500;  896,000;    0,000;1416,50000
 326,12; 1348,500; 1057,000;    0,000;291,50000
 326,14;  706,500;  407,000;    0,000;299,50000
 326,16;  482,500; 1699,000;    0,000;-1216,50000
 326,18;  367,500;  786,000;    0,000;-418,50000
 326,20;  271,000;  390,000;    0,000;-119,00000
 326,21;  260,000;  558,000;    0,000;-298,00000
 326,23;  197,000;  700,000;    0,000;-503,00000
 326,25;  239,000; -143,000;    0,000;382,00000
 326,27;  198,000;  599,000;    0,000;-401,00000
 326,29;  187,000;  409,000;    0,000;-222,00000
 326,31;  164,500;  969,000;    0,000;-804,50000
 326,32;  144,500;  198,000;    0,000;-53,50000
 326,34;  140,000;  869,000;    0,000;-729,00000
 326,36;  139,500;  933,000;    0,000;-793,50000
 326,38;  142,000; 1377,000;    0,000;-1235,00000
 326,40;  111,000;   76,000;    0,000;35,00000
 326,42;  112,000;  605,000;    0,000;-493,00000
 326,43;  126,500;  648,000;    0,000;-521,50000
 326,45;  119,000; 1257,000;    0,000;-1138,00000
 326,47;  137,500; -128,000;    0,000;265,50000
 326,49;  181,000; 1102,000;    0,000;-921,00000
 326,51;  107,500;  676,000;    0,000;-568,50000
 326,52;   71,500;  970,000;    0,000;-898,50000
 326,54;   95,500;  262,000;    0,000;-166,50000
 326,56;   90,500;  786,000;    0,000;-695,50000
 326,58;  136,000;  651,000;    0,000;-515,00000
 326,60;   79,000; 1006,000;    0,000;-927,00000
 326,62;   60,500;   -3,000;    0,000;63,50000
 326,63;   76,000;  375,000;    0,000;-299,00000
 326,65;   84,000;  565,000;    0,000;-481,00000
 326,67;   46,500;  972,000;    0,000;-925,50000
 326,69;   77,000;  475,000;    0,000;-398,00000
 326,71;  108,000;  631,000;    0,000;-523,00000
 326,72;   75,500;  829,000;    0,000;-753,50000
 326,74;   61,500;  775,000;    0,000;-713,50000
 326,76;  102,000;  508,000;    0,000;-406,00000
 326,78;   84,000;  318,000;    0,000;-234,00000
 326,80;   31,000;  573,000;    0,000;-542,00000
 326,82;   25,000;  379,000;    0,000;-354,00000
 326,83;   57,500; -171,000;    0,000;228,50000
 326,85;   47,500;  212,000;    0,000;-164,50000
 326,87;   58,500;  369,000;    0,000;-310,50000
 326,89;   47,000;  891,000;    0,000;-844,00000
 326,91;  111,500;  209,000;    0,000;-97,50000
 326,92;   66,500;  235,000;    0,000;-168,50000
 326,94;   93,500;  346,000;    0,000;-252,50000
 326,96;   38,500;  307,000;    0,000;-268,50000
 326,98;   98,500;   11,000;    0,000;87,50000
 327,00;   66,000;  477,000;    0,000;-411,00000
 327,01;   82,000;  821,000;    0,000;-739,00000
 327,03;   80,500; 1435,000;    0,000;-1354,50000
 327,05;   67,000;  209,000;    0,000;-142,00000
 327,07;   56,500;  222,000;    0,000;-165,50000
 327,09;   89,000;  608,000;    0,000;-519,00000
 327,11;   51,500;  633,000;    0,000;-581,50000
 327,12;   76,000;   63,000;    0,000;13,00000
 327,14;   18,000;  735,000;    0,000;-717,00000
 327,16;   39,000; 1163,000;    0,000;-1124,00000
 327,18;   83,000; 1512,000;    0,000;-1429,00000
 327,20;   92,500;  190,000;    0,000;-97,50000
 327,21;   54,500;  366,000;    0,000;-311,50000
 327,23;   38,500;  149,000;    0,000;-110,50000
 327,25;   78,000; 1258,000;    0,000;-1180,00000
 327,27;   92,500; -158,000;    0,000;250,50000
 327,29;   14,000;  333,000;    0,000;-319,00000
 327,30;   71,000;  679,000;    0,000;-608,00000
 327,32;   31,500;  693,000;    0,000;-661,50000
 327,34;   71,500; 1185,000;    0,000;-1113,50000
 327,36;   70,500; 1169,000;    0,000;-1098,50000
 327,38;   21,000;  152,000;    0,000;-131,00000
 327,39;   69,000; 1134,000;    0,000;-1065,00000
 327,41;    1,500;  486,000;    0,000;-484,50000
 327,43;   27,500;  563,000;    0,000;-535,50000
 327,45;  106,000;  696,000;    0,000;-590,00000
 327,47;   18,000;  756,000;    0,000;-738,00000
 327,49;   80,500;  891,000;    0,000;-810,50000
 327,50;  110,000;   23,000;    0,000;87,00000
 327,52;   63,500;  243,000;    0,000;-179,50000
 327,54;   15,500;  338,000;    0,000;-322,50000
 327,56;   66,500;  -38,000;    0,000;104,50000
 327,58;  -17,500;  -72,000;    0,000;54,50000
 327,59;   19,500; 1361,000;    0,000;-1341,50000
 327,61;   -4,000;  334,000;    0,000;-338,00000
 327,63;   16,500; 1079,000;    0,000;-1062,50000
 327,65;   14,000; 1089,000;    0,000;-1075,00000
 327,67;  -33,000;  542,000;    0,000;-575,00000
 327,68;    6,000;  663,000;    0,000;-657,00000
 327,70;  -13,000;  -53,000;    0,000;40,00000
 327,72;    2,500;  518,000;    0,000;-515,50000
 327,74;   62,500;  740,000;    0,000;-677,50000
 327,76;  -20,000;  841,000;    0,000;-861,00000
 327,77;   30,500;  105,000;    0,000;-74,50000
 327,79;   56,000;  212,000;    0,000;-156,00000
 327,81;   52,000;  275,000;    0,000;-223,00000
 327,83;    3,000;  902,000;    0,000;-899,00000
 327,85;   50,000; -488,000;    0,000;538,00000
 327,86;   -9,000;  543,000;    0,000;-552,00000
 327,88;   -8,000;  796,000;    0,000;-804,00000
 327,90;    6,500;  534,000;    0,000;-527,50000
 327,92;  -15,500;  449,000;    0,000;-464,50000
 327,94;   -7,500;  118,000;    0,000;-125,50000
 327,95;  -26,500;  241,000;    0,000;-267,50000
 327,97;   52,500;  792,000;    0,000;-739,50000
 327,99;   65,000;  -11,000;    0,000;76,00000
 328,01;   50,000;  577,000;    0,000;-527,00000
 328,03;   65,000;  377,000;    0,000;-312,00000
 328,04;  -53,000;  423,000;    0,000;-476,00000
 328,06;   36,000;  -74,000;    0,000;110,00000
 328,08;    0,000;  523,000;    0,000;-523,00000
 328,10;   75,000;  430,000;    0,000;-355,00000
 328,12;  -16,000;  397,000;    0,000;-413,00000
 328,13;  -32,500; -177,000;    0,000;144,50000
 328,15;    6,500;   61,000;    0,000;-54,50000
 328,17;  -44,000;  141,000;    0,000;-185,00000
 328,19;   36,000;  381,000;    0,000;-345,00000
 328,21;   29,000; -294,000;    0,000;323,00000
 328,22;  -19,000;  892,000;    0,000;-911,00000
 328,24;   57,000;  222,000;    0,000;-165,00000
 328,26;  -51,500;  815,000;    0,000;-866,50000
 328,28;   54,000;   60,000;    0,000;-6,00000
 328,30;   50,000;  119,000;    0,000;-69,00000
 328,31;  -17,500;  114,000;    0,000;-131,50000
 328,33;   46,000;  787,000;    0,000;-741,00000
 328,35;   24,000; -303,000;    0,000;327,00000
 328,37;  -17,500;  278,000;    0,000;-295,50000
 328,39;  -18,500;  621,000;    0,000;-639,50000
 328,40;  -11,000;  247,000;    0,000;-258,00000
 328,42;    3,500; -397,000;    0,000;400,50000
 328,44;    9,500; -107,000;    0,000;116,50000
 328,46;   13,000;  255,000;    0,000;-242,00000
 328,47;   26,500;  537,000;    0,000;-510,50000
 328,49;   -5,000; -303,000;    0,000;298,00000
 328,51;  -10,500;  226,000;    0,000;-236,50000
 328,53;  -21,500;  272,000;    0,000;-293,50000
 328,55;   -5,000;  146,000;    0,000;-151,00000
 328,56;   21,000; -188,000;    0,000;209,00000
 328,58;   -7,000; -391,000;    0,000;384,00000
 328,60;   -2,500;  135,000;    0,000;-137,50000
 328,62;  -43,500;  654,000;    0,000;-697,50000
 328,64;   22,000;  247,000;    0,000;-225,00000
 328,65;    6,000;  112,000;    0,000;-106,00000
 328,67;   -4,000;  406,000;    0,000;-410,00000
 328,69;    3,500;  -88,000;    0,000;91,50000
 328,71;    4,000;    1,000;    0,000; 3,00000
 328,73;    6,500;  -98,000;    0,000;104,50000
 328,74;   42,000;   54,000;    0,000;-12,00000
 328,76;  -49,500;  301,000;    0,000;-350,50000
 328,78;   28,500; -242,000;    0,000;270,50000
 328,80;   45,500;  -63,000;    0,000;108,50000
 328,81;    5,000;  435,000;    0,000;-430,00000
 328,83;   -5,500;  207,000;    0,000;-212,50000
 328,85;   62,000;  -80,000;    0,000;142,00000
 328,87;  -14,500; -211,000;    0,000;196,50000
 328,89;    8,500;  -84,000;    0,000;92,50000
 328,90;  -19,000;    6,000;    0,000;-25,00000
 328,92;   -3,000;  205,000;    0,000;-208,00000
 328,94;   30,500;   16,000;    0,000;14,50000
 328,96;    0,500;   40,000;    0,000;-39,50000
 328,98;  -19,000;  184,000;    0,000;-203,00000
 328,99;   23,500; -145,000;    0,000;168,50000
 329,01;  -22,000; -289,000;    0,000;267,00000
 329,03;  -17,000; -138,000;    0,000;121,00000
 329,05;  -27,000;  212,000;    0,000;-239,00000
 329,06;  -39,500; -154,000;    0,000;114,50000
 329,08;   29,000;  160,000;    0,000;-131,00000
 329,10;   29,000; -305,000;    0,000;334,00000
 329,12;  -50,000;  341,000;    0,000;-391,00000
 329,14;    3,500; -408,000;    0,000;411,50000
 329,15;  -15,000; -361,000;    0,000;346,00000
 329,17;    5,000;  378,000;    0,000;-373,00000
 329,19;   34,000;    2,000;    0,000;32,00000
 329,21;   35,500; -326,000;    0,000;361,50000
 329,23;   -4,500; 1120,000;    0,000;-1124,50000
 329,24;  -30,500;  -83,000;    0,000;52,50000
 329,26;   -3,000;  281,000;    0,000;-284,00000
 329,28;  -26,000;  -69,000;    0,000;43,00000
 329,30;  -29,500; -421,000;    0,000;391,50000
 329,31;   23,500;  -32,000;    0,000;55,50000
 329,33;  -39,500;  289,000;    0,000;-328,50000
 329,35;   58,500; -440,000;    0,000;498,50000
 329,37;   -2,500;  -78,000;    0,000;75,50000
 329,39;   -2,000;  261,000;    0,000;-263,00000
 329,40;   16,000;  386,000;    0,000;-370,00000
 329,42;    3,000;   40,000;    0,000;-37,00000
 329,44;   18,000; -176,000;    0,000;194,00000
 329,46;  -14,500;    5,000;    0,000;-19,50000
 329,47;   -3,500;  415,000;    0,000;-418,50000
 329,49;   35,000; -115,000;    0,000;150,00000
 329,51;    8,000; -158,000;    0,000;166,00000
 329,53;   41,500; -130,000;    0,000;171,50000
 329,55;   31,500;  219,000;    0,000;-187,50000
 329,56;    3,000; -705,000;    0,000;708,00000
 329,58;   11,000; -433,000;    0,000;444,00000
 329,60;   35,500;  237,000;    0,000;-201,50000
 329,62;   17,000;  635,000;    0,000;-618,00000
 329,63;  -13,500; -415,000;    0,000;401,50000
 329,65;  -14,000; -166,000;    0,000;152,00000
 329,67;  -33,500;  -19,000;    0,000;-14,50000
 329,69;    7,500;  245,000;    0,000;-237,50000
 329,71;   23,500; -439,000;    0,000;462,50000
 329,72;   24,000; -115,000;    0,000;139,00000
 329,74;    0,000;   -9,000;    0,000; 9,00000
 329,76;  -72,500;   71,000;    0,000;-143,50000
 329,78;   47,500; -364,000;    0,000;411,50000
 329,79;   26,000;  -89,000;    0,000;115,00000
 329,81;  -17,500;  548,000;    0,000;-565,50000
 329,83;  -33,500;   34,000;    0,000;-67,50000
 329,85;   16,500; -331,000;    0,000;347,50000
 329,87;   15,000;  118,000;    0,000;-103,00000
 329,88;   -1,000;  -37,000;    0,000;36,00000
 329,90;   15,000;  608,000;    0,000;-593,00000
 329,92;  -12,000; -391,000;    0,000;379,00000
 329,94;  -49,000; -275,000;    0,000;226,00000
 329,95;   -1,000; -201,000;    0,000;200,00000
 329,97;  -48,000;   52,000;    0,000;-100,00000
 329,99;    6,000;   54,000;    0,000;-48,00000
 330,01;  -18,500; -117,000;    0,000;98,50000
 330,02;   -9,500; -218,000;    0,000;208,50000
 330,04;  -37,000; -164,000;    0,000;127,00000
 330,06;   22,500; -310,000;    0,000;332,50000
 330,08;   -4,500; -365,000;    0,000;360,50000
 330,10;   -3,500;  -43,000;    0,000;39,50000
 330,11;  -30,000;  119,000;    0,000;-149,00000
 330,13;  -32,500; -198,000;    0,000;165,50000
 330,15;   33,500; -135,000;    0,000;168,50000
 330,17;   24,500; -275,000;    0,000;299,50000
 330,18;  -36,500;  207,000;    0,000;-243,50000
 330,20;   -7,000; -645,000;    0,000;638,00000
 330,22;   -7,500;  -77,000;    0,000;69,50000
 330,24;  -30,500; -102,000;    0,000;71,50000
 330,25;  -19,000;   31,000;    0,000;-50,00000
 330,27;   34,500; -537,000;    0,000;571,50000
 330,29;  -27,000; -370,000;    0,000;343,00000
 330,31;  -35,000; -267,000;    0,000;232,00000
 330,33;  -22,500;  509,000;    0,000;-531,50000
 330,34;  -28,000; -583,000;    0,000;555,00000
 330,36;  -21,500; -438,000;    0,000;416,50000
 330,38;   14,000;  299,000;    0,000;-285,00000
 330,40;    8,000;  495,000;    0,000;-487,00000
 330,41;  -24,500; -404,000;    0,000;379,50000
 330,43;   12,500; -409,000;    0,000;421,50000
 330,45;   -6,000; -119,000;    0,000;113,00000
 330,47;  -46,500;  160,000;    0,000;-206,50000
 330,48;   10,500; -477,000;    0,000;487,50000
 330,50;  -36,000;  116,000;    0,000;-152,00000
 330,52;  -24,000; -239,000;    0,000;215,00000
 330,54;  -73,500;  107,000;    0,000;-180,50000
 330,56;   -2,500; -234,000;    0,000;231,50000
 330,57;   48,500; -176,000;    0,000;224,50000
 330,59;   57,500;  154,000;    0,000;-96,50000
 330,61;  -55,500;  245,000;    0,000;-300,50000
 330,63;  -12,000; -375,000;    0,000;363,00000
 330,64;   14,500; -277,000;    0,000;291,50000
 330,66;   33,000;  108,000;    0,000;-75,00000
 330,68;   -6,000;  -59,000;    0,000;53,00000
 330,70;  -12,000; -506,000;    0,000;494,00000
 330,71;  -67,500; -343,000;    0,000;275,50000
 330,73;   31,000; -195,000;    0,000;226,00000
 330,75;  -58,000;    8,000;    0,000;-66,00000
 330,77;   52,500; -530,000;    0,000;582,50000
 330,78;  -17,500; -387,000;    0,000;369,50000
 330,80;   26,000; -388,000;    0,000;414,00000
 330,82;   11,000;  595,000;    0,000;-584,00000
 330,84;   -4,000; -510,000;    0,000;506,00000
 330,85;   45,500;  129,000;    0,000;-83,50000
 330,87;   21,000;   52,000;    0,000;-31,00000
 330,89;  -15,500; -266,000;    0,000;250,50000
 330,91;  -10,500; -413,000;    0,000;402,50000
 330,92;   -2,500;   11,000;    0,000;-13,50000
 330,94;    8,500; -380,000;    0,000;388,50000
 330,96;   -9,000;  -66,000;    0,000;57,00000
 330,98;  -24,000; -339,000;    0,000;315,00000
 331,00;  -50,500; -138,000;    0,000;87,50000
 331,01;  -37,500; -237,000;    0,000;199,50000
 331,03;   32,500;  152,000;    0,000;-119,50000
 331,05;   42,500; -323,000;    0,000;365,50000
 331,07;   30,500;  143,000;    0,000;-112,50000
 331,08;   24,500;  -83,000;    0,000;107,50000
 331,10;  -40,000; -176,000;    0,000;136,00000
 331,12;   -3,000; -304,000;    0,000;301,00000
 331,14;  -26,500; -341,000;    0,000;314,50000
 331,15;   -1,000;  287,000;    0,000;-288,00000
 331,17;  -44,000;  387,000;    0,000;-431,00000
 331,19;  -57,000; -602,000;    0,000;545,00000
 331,21;   -1,000; -196,000;    0,000;195,00000
 331,22;  -24,500; -313,000;    0,000;288,50000
 331,24;  -15,000;  224,000;    0,000;-239,00000
 331,26;  -23,000; -469,000;    0,000;446,00000
 331,28;  -19,000; -459,000;    0,000;440,00000
 331,29;  -30,000; -198,000;    0,000;168,00000
 331,31;  -35,000;  310,000;    0,000;-345,00000
 331,33;    1,000; -460,000;    0,000;461,00000
 331,35;   24,000; -522,000;    0,000;546,00000
 331,36;   19,500; -230,000;    0,000;249,50000
 331,38;   66,500;  475,000;    0,000;-408,50000
 331,40;    0,500; -325,000;    0,000;325,50000
 331,42;  -18,000;    6,000;    0,000;-24,00000
 331,43;   20,000;  137,000;    0,000;-117,00000
 331,45;  -31,500;  627,000;    0,000;-658,50000
 331,47;  -24,000; -185,000;    0,000;161,00000
 331,49;   26,000;  206,000;    0,000;-180,00000
 331,50;  -17,500; -333,000;    0,000;315,50000
 331,52;  -34,500;   93,000;    0,000;-127,50000
 331,54;  -10,000; -511,000;    0,000;501,00000
 331,56;  -37,500; -374,000;    0,000;336,50000
 331,57;   40,500; -155,000;    0,000;195,50000
 331,59;  -41,500;  248,000;    0,000;-289,50000
 331,61;   40,500; -408,000;    0,000;448,50000
 331,63;    8,500; -313,000;    0,000;321,50000
 331,64;   10,000;  -23,000;    0,000;33,00000
 331,66;   28,000;   69,000;    0,000;-41,00000
 331,68;   -3,000; -196,000;    0,000;193,00000
 331,70;  -58,500; -250,000;    0,000;191,50000
 331,71;  -51,000;  -91,000;    0,000;40,00000
 331,73;  -56,500;  -35,000;    0,000;-21,50000
 331,75;    9,500; -410,000;    0,000;419,50000
 331,77;  -16,000; -298,000;    0,000;282,00000
 331,78;   27,500; -153,000;    0,000;180,50000
 331,80;    1,000;  249,000;    0,000;-248,00000
 331,82;   22,500; -242,000;    0,000;264,50000
 331,84;  -21,500; -361,000;    0,000;339,50000
 331,85;   16,000; -169,000;    0,000;185,00000
 331,87;   16,500;    0,000;    0,000;16,50000
 331,89;  -11,000; -184,000;    0,000;173,00000
 331,91;  -61,000; -355,000;    0,000;294,00000
 331,92;  -70,000;  -11,000;    0,000;-59,00000
 331,94;  -46,500;  -66,000;    0,000;19,50000
 331,96;   45,000; -544,000;    0,000;589,00000
 331,98;  -54,000; -198,000;    0,000;144,00000
 331,99;   15,000; -140,000;    0,000;155,00000
 332,01;  -25,500;  297,000;    0,000;-322,50000
 332,03;  -21,500;  395,000;    0,000;-416,50000
 332,04;  -36,000; -192,000;    0,000;156,00000
 332,06;    2,500; -357,000;    0,000;359,50000
 332,08;  -25,000;   32,000;    0,000;-57,00000
 332,10;  -63,000; -540,000;    0,000;477,00000
 332,11;   -8,000; -212,000;    0,000;204,00000
 332,13;   34,000;  178,000;    0,000;-144,00000
 332,15;   48,500;   36,000;    0,000;12,50000
 332,17;   -6,000; -650,000;    0,000;644,00000
 332,18;    6,000; -202,000;    0,000;208,00000
 332,20;   13,500; -190,000;    0,000;203,50000
 332,22;  -26,500;  371,000;    0,000;-397,50000
 332,24;  -33,000; -310,000;    0,000;277,00000
 332,25;  -25,500; -521,000;    0,000;495,50000
 332,27;   32,500;   27,000;    0,000; 5,50000
 332,29;  -20,500; -263,000;    0,000;242,50000
 332,31;   35,500; -233,000;    0,000;268,50000
 332,32;   -8,000;  323,000;    0,000;-331,00000
 332,34;   -4,000;    1,000;    0,000;-5,00000
 332,36;  -25,500;  -32,000;    0,000; 6,50000
 332,38;   -7,500; -300,000;    0,000;292,50000
 332,39;  -19,000; -552,000;    0,000;533,00000
 332,41;   -8,500;  367,000;    0,000;-375,50000
 332,43;  -31,500;  517,000;    0,000;-548,50000
 332,45;   19,000; -822,000;    0,000;841,00000
 332,46;   -1,000; -320,000;    0,000;319,00000
 332,48;  -22,000; -154,000;    0,000;132,00000
 332,50;    0,000;  -56,000;    0,000;56,00000
 332,51;  -45,000; -568,000;    0,000;523,00000
 332,53;    7,000; -343,000;    0,000;350,00000
 332,55;  -26,000; -200,000;    0,000;174,00000
 332,57;   10,500; -171,000;    0,000;181,50000
 332,58;   15,000; -512,000;    0,000;527,00000
 332,60;  -46,000; -228,000;    0,000;182,00000
 332,62;    1,000; -274,000;    0,000;275,00000
 332,64;    1,500;  468,000;    0,000;-466,50000
 332,65;   26,000; -444,000;    0,000;470,00000
 332,67;   17,000;  290,000;    0,000;-273,00000
 332,69;  -30,000;  272,000;    0,000;-302,00000
 332,71;  -24,000;  351,000;    0,000;-375,00000
 332,72;   17,500; -680,000;    0,000;697,50000
 332,74;  -63,500; -540,000;    0,000;476,50000
 332,76;  -36,500; -245,000;    0,000;208,50000
 332,77;  -38,500;  430,000;    0,000;-468,50000
 332,79;  -10,000; -719,000;    0,000;709,00000
 332,81;  -19,500; -336,000;    0,000;316,50000
 332,83;    8,000; -344,000;    0,000;352,00000
 332,84;  -62,000;   20,000;    0,000;-82,00000
 332,86;  -18,500; -425,000;    0,000;406,50000
 332,88;  -49,500; -457,000;    0,000;407,50000
 332,90;  -28,000; -206,000;    0,000;178,00000
 332,91;  -84,500;  670,000;    0,000;-754,50000
 332,93;    1,000; -570,000;    0,000;571,00000
 332,95;  -18,000; -136,000;    0,000;118,00000
 332,96;   30,000;  -71,000;    0,000;101,00000
 332,98;    7,500;  457,000;    0,000;-449,50000
 333,00;   -5,500; -137,000;    0,000;131,50000
 333,02;    8,000; -363,000;    0,000;371,00000
 333,03;   27,000;  -66,000;    0,000;93,00000
 333,05; -106,500;  157,000;    0,000;-263,50000
 333,07;    2,500; -638,000;    0,000;640,50000
 333,09;  -32,500; -142,000;    0,000;109,50000
 333,10;   13,500;   36,000;    0,000;-22,50000
 333,12;  -35,000;  205,000;    0,000;-240,00000
 333,14;   -1,500; -976,000;    0,000;974,50000
 333,15;   20,500; -329,000;    0,000;349,50000
 333,17;  -47,500; -181,000;    0,000;133,50000
 333,19;  -61,500;  100,000;    0,000;-161,50000
 333,21;   18,500;    0,000;    0,000;18,50000
 333,22;   21,500; -330,000;    0,000;351,50000
 333,24;  -18,000; -211,000;    0,000;193,00000
 333,26;    2,000;  506,000;    0,000;-504,00000
 333,28;   -5,000; -128,000;    0,000;123,00000
 333,29;  -52,500; -634,000;    0,000;581,50000
 333,31;   -4,500; -195,000;    0,000;190,50000
 333,33;  -10,500;  -65,000;    0,000;54,50000
 333,34;  -41,500; -483,000;    0,000;441,50000
 333,36;  -25,000; -142,000;    0,000;117,00000
 333,38;   29,500; -307,000;    0,000;336,50000
 333,40;  -57,500;   71,000;    0,000;-128,50000
 333,41;   -3,500; -741,000;    0,000;737,50000
 333,43;    4,500; -503,000;    0,000;507,50000
 333,45;   31,500; -245,000;    0,000;276,50000
 333,47;  -11,000;  -79,000;    0,000;68,00000
 333,48;   20,000; -331,000;    0,000;351,00000
 333,50;  -15,000;   98,000;    0,000;-113,00000
 333,52;    6,000; -244,000;    0,000;250,00000
 333,53;   11,500;  422,000;    0,000;-410,50000
 333,55;   18,500; -130,000;    0,000;148,50000
 333,57;   35,500; -299,000;    0,000;334,50000
 333,59;   -5,000;  -21,000;    0,000;16,00000
 333,60;   -0,500;  170,000;    0,000;-170,50000
 333,62;  -29,500; -505,000;    0,000;475,50000
 333,64;  -10,000; -277,000;    0,000;267,00000
 333,65;   21,500; -108,000;    0,000;129,50000
 333,67;    0,000;  180,000;    0,000;-180,00000
 333,69;   34,500;  -67,000;    0,000;101,50000
 333,71;  -37,000; -354,000;    0,000;317,00000
 333,72;   14,000; -551,000;    0,000;565,00000
 333,74;   -2,000;   52,000;    0,000;-54,00000
 333,76;  -63,000; -682,000;    0,000;619,00000
 333,77;  -26,500; -463,000;    0,000;436,50000
 333,79;   -1,500; -309,000;    0,000;307,50000
 333,81;   32,500;  403,000;    0,000;-370,50000
 333,83;  -13,000; -504,000;    0,000;491,00000
 333,84;  -17,000;  -43,000;    0,000;26,00000
 333,86;  -12,500; -360,000;    0,000;347,50000
 333,88;  -22,000;  -54,000;    0,000;32,00000
 333,89;    6,000; -603,000;    0,000;609,00000
 333,91;  -18,000; -608,000;    0,000;590,00000
 333,93;   16,500;  166,000;    0,000;-149,50000
 333,95;  -52,000;  416,000;    0,000;-468,00000
 333,96;   17,500; -429,000;    0,000;446,50000
 333,98;  -12,500; -371,000;    0,000;358,50000
 334,00;   -5,000; -134,000;    0,000;129,00000
 334,01;   -7,500;  419,000;    0,000;-426,50000
 334,03;   -5,000; -268,000;    0,000;263,00000
 334,05;   18,000; -196,000;    0,000;214,00000
 334,07;    9,500;    6,000;    0,000; 3,50000
 334,08;  -22,000;   91,000;    0,000;-113,00000
 334,10;  -19,000; -613,000;    0,000;594,00000
 334,12;  -30,000; -218,000;    0,000;188,00000
 334,13;   17,000;   -2,000;    0,000;19,00000
 334,15;    9,000;  147,000;    0,000;-138,00000
 334,17;   55,500; -299,000;    0,000;354,50000
 334,19;   21,000; -192,000;    0,000;213,00000
 334,20;   21,500;  185,000;    0,000;-163,50000
 334,22;  -15,000;  -79,000;    0,000;64,00000
 334,24;   28,000; -289,000;    0,000;317,00000
 334,25;  -14,500; -389,000;    0,000;374,50000
 334,27;   78,000;   12,000;    0,000;66,00000
 334,29;  -15,000;  437,000;    0,000;-452,00000
 334,31;  -46,500; -502,000;    0,000;455,50000
 334,32;  -32,500; -258,000;    0,000;225,50000
 334,34;  -69,500; -311,000;    0,000;241,50000
 334,36;  -17,500;  390,000;    0,000;-407,50000
 334,37;   36,000;  -72,000;    0,000;108,00000
 334,39;  -19,500;  271,000;    0,000;-290,50000
 334,41;   -8,500;  -35,000;    0,000;26,50000
 334,43;  -25,500;   91,000;    0,000;-116,50000
 334,44;   50,000; -391,000;    0,000;441,00000
 334,46;   11,500;   54,000;    0,000;-42,50000
 334,48;   34,000;   89,000;    0,000;-55,00000
 334,49;  -25,000;   53,000;    0,000;-78,00000
 334,51;    9,000; -639,000;    0,000;648,00000
 334,53;   -9,500; -585,000;    0,000;575,50000
 334,54;   -7,500;   97,000;    0,000;-104,50000
 334,56;   12,500;   -9,000;    0,000;21,50000
 334,58;   45,500; -474,000;    0,000;519,50000
 334,60;   46,000; -305,000;    0,000;351,00000
 334,61;  -27,000; -267,000;    0,000;240,00000
 334,63;   -2,500;  261,000;    0,000;-263,50000
 334,65;   16,000;  -87,000;    0,000;103,00000
 334,66;   17,500;  -67,000;    0,000;84,50000
 334,68;  -34,000; -379,000;    0,000;345,00000
 334,70;  -78,000;   99,000;    0,000;-177,00000
 334,72;   32,500; -284,000;    0,000;316,50000
 334,73;   -6,500; -459,000;    0,000;452,50000
 334,75;  -46,500;   28,000;    0,000;-74,50000
 334,77;  -10,500;  313,000;    0,000;-323,50000
 334,78;  -14,000; -731,000;    0,000;717,00000
 334,80;   17,000; -226,000;    0,000;243,00000
 334,82;   10,500;   74,000;    0,000;-63,50000
 334,83;   13,500;  316,000;    0,000;-302,50000
 334,85;  -35,500; -694,000;    0,000;658,50000
 334,87;  -17,500; -513,000;    0,000;495,50000
 334,89;  -50,500; -191,000;    0,000;140,50000
 334,90;   36,000;   33,000;    0,000; 3,00000
 334,92;   16,500; -584,000;    0,000;600,50000
 334,94;   56,000; -415,000;    0,000;471,00000
 334,95;   17,000;   17,000;    0,000; 0,00000
 334,97; -100,000;  253,000;    0,000;-353,00000
 334,99;  -24,500; -398,000;    0,000;373,50000
 335,00;   44,500; -386,000;    0,000;430,50000
 335,02;   45,000;  130,000;    0,000;-85,00000
 335,04;  -37,000;  183,000;    0,000;-220,00000
 335,06;   20,500; -668,000;    0,000;688,50000
 335,07;   19,500; -543,000;    0,000;562,50000
 335,09;   13,000;  217,000;    0,000;-204,00000
 335,11;  -20,000;  379,000;    0,000;-399,00000
 335,12;    6,500; -357,000;    0,000;363,50000
 335,14;  -24,500; -412,000;    0,000;387,50000
 335,16;   42,500;  168,000;    0,000;-125,50000
 335,17;  -20,000; -385,000;    0,000;365,00000
 335,19;    7,000; -177,000;    0,000;184,00000
 335,21;  -19,000; -330,000;    0,000;311,00000
 335,23;    8,500;  162,000;    0,000;-153,50000
 335,24;  -25,500; -176,000;    0,000;150,50000
 335,26;  -35,000; -713,000;    0,000;678,00000
 335,28;    6,000; -390,000;    0,000;396,00000
 335,29;  -37,000; -237,000;    0,000;200,00000
 335,31;  -13,000;   43,000;    0,000;-56,00000
 335,33;  -25,000; -428,000;    0,000;403,00000
 335,34;   -6,000; -104,000;    0,000;98,00000
 335,36;   -3,500;  103,000;    0,000;-106,50000
 335,38;    1,000;  472,000;    0,000;-471,00000
 335,39;    9,000;  611,000;    0,000;-602,00000
 335,41;  -50,000; -432,000;    0,000;382,00000
 335,43;   31,000; -360,000;    0,000;391,00000
 335,45;   -7,000;  -34,000;    0,000;27,00000
 335,46;   13,000; -558,000;    0,000;571,00000
 335,48;   -2,000;  202,000;    0,000;-204,00000
 335,50;    5,000;  -98,000;    0,000;103,00000
 335,51;  -14,000;  -34,000;    0,000;20,00000
 335,53;  -18,500; -741,000;    0,000;722,50000
 335,55;  -18,000; -441,000;    0,000;423,00000
 335,56;    6,500;  -75,000;    0,000;81,50000
 335,58;    3,000;  131,000;    0,000;-128,00000
 335,60;   17,500; -507,000;    0,000;524,50000
 335,61;  -23,000; -464,000;    0,000;441,00000
 335,63;  -24,000;  291,000;    0,000;-315,00000
 335,65;  -20,000;   73,000;    0,000;-93,00000
 335,67;    0,500; -639,000;    0,000;639,50000
 335,68;  -35,500; -345,000;    0,000;309,50000
 335,70;   33,000;  372,000;    0,000;-339,00000
 335,72;  -45,500;  296,000;    0,000;-341,50000
 335,73;  -15,500; -132,000;    0,000;116,50000
 335,75;  -17,500; -387,000;    0,000;369,50000
 335,77;   12,000;  -59,000;    0,000;71,00000
 335,78;  -58,000;  400,000;    0,000;-458,00000
 335,80;  -36,000; -742,000;    0,000;706,00000
 335,82;  -18,500; -486,000;    0,000;467,50000
 335,83;   -2,000;  108,000;    0,000;-110,00000
 335,85;   -0,500;  271,000;    0,000;-271,50000
 335,87;   51,000; -514,000;    0,000;565,00000
 335,88;   13,500; -339,000;    0,000;352,50000
 335,90;   -3,500;  335,000;    0,000;-338,50000
 335,92;   42,500;   56,000;    0,000;-13,50000
 335,93;  -32,500; -491,000;    0,000;458,50000
 335,95;    0,000; -349,000;    0,000;349,00000
 335,97;   28,500;    2,000;    0,000;26,50000
 335,99;  -13,000;  350,000;    0,000;-363,00000
 336,00;   14,000; -652,000;    0,000;666,00000
 336,02;  -29,000; -381,000;    0,000;352,00000
 336,04;    8,500;   67,000;    0,000;-58,50000
 336,05;  -23,000;  323,000;    0,000;-346,00000
 336,07;   21,000; -871,000;    0,000;892,00000
 336,09;   15,500; -526,000;    0,000;541,50000
 336,10;   47,000;  -73,000;    0,000;120,00000
 336,12;  -24,000;  104,000;    0,000;-128,00000
 336,14;   35,500; -929,000;    0,000;964,50000
 336,15;  -18,000; -635,000;    0,000;617,00000
 336,17;   -4,500; -293,000;    0,000;288,50000
 336,19;  -92,000;  372,000;    0,000;-464,00000
 336,20;   67,000; -410,000;    0,000;477,00000
 336,22;  -20,000; -224,000;    0,000;204,00000
 336,24;  -24,500;  286,000;    0,000;-310,50000
 336,25;   -7,000; -204,000;    0,000;197,00000
 336,27;  -35,000; -616,000;    0,000;581,00000
 336,29;    0,000; -309,000;    0,000;309,00000
 336,30;   31,000;  132,000;    0,000;-101,00000
 336,32;   -8,000;   51,000;    0,000;-59,00000
 336,34;   -8,000; -596,000;    0,000;588,00000
 336,36;   -6,000; -512,000;    0,000;506,00000
 336,37;    6,000; -305,000;    0,000;311,00000
 336,39;  -49,000;   32,000;    0,000;-81,00000
 336,41;    6,500; -593,000;    0,000;599,50000
 336,42;  -25,500; -618,000;    0,000;592,50000
 336,44;   44,000; -226,000;    0,000;270,00000
 336,46;  -60,500;  466,000;    0,000;-526,50000
 336,47;  -29,000; -668,000;    0,000;639,00000
 336,49;    4,500; -370,000;    0,000;374,50000
 336,51;   -3,000;  -17,000;    0,000;14,00000
 336,52;  -46,500;  177,000;    0,000;-223,50000
 336,54;   10,500; -411,000;    0,000;421,50000
 336,56;  -19,000; -504,000;    0,000;485,00000
 336,57;   29,000; -285,000;    0,000;314,00000
 336,59;   -5,000;  -72,000;    0,000;67,00000
 336,61;  -31,500;  304,000;    0,000;-335,50000
 336,62;    6,500; -365,000;    0,000;371,50000
 336,64;  -34,000; -138,000;    0,000;104,00000
 336,66;  -23,000; 2800,000;    0,000;-2823,00000
 336,67;   14,000; -290,000;    0,000;304,00000
 336,69;   49,500;  -86,000;    0,000;135,50000
 336,71;  -13,000;    7,000;    0,000;-20,00000
 336,72;  -33,500;  -79,000;    0,000;45,50000
 336,74;   12,000; -556,000;    0,000;568,00000
 336,76;  -12,500; -123,000;    0,000;110,50000
 336,77;  -46,500;   -3,000;    0,000;-43,50000
 336,79;   -6,000;   66,000;    0,000;-72,00000
 336,81;   21,000; -500,000;    0,000;521,00000
 336,82;  -51,500; -498,000;    0,000;446,50000
 336,84;  -15,500;  -96,000;    0,000;80,50000
 336,86;  -18,000;  369,000;    0,000;-387,00000
 336,87;  -46,500; -769,000;    0,000;722,50000
 336,89;  -34,000; -544,000;    0,000;510,00000
 336,91;  -41,000; -227,000;    0,000;186,00000
 336,92;  -39,500;  152,000;    0,000;-191,50000
 336,94;  -24,500; -730,000;    0,000;705,50000
 336,96;   17,000; -422,000;    0,000;439,00000
 336,97;   10,500;  -46,000;    0,000;56,50000
 336,99;   30,000;   -1,000;    0,000;31,00000
 337,01;  -11,000; -268,000;    0,000;257,00000
 337,02;  -11,000; -535,000;    0,000;524,00000
 337,04;  -57,500;  -75,000;    0,000;17,50000
 337,06;  -23,000;  293,000;    0,000;-316,00000
 337,07;   30,000; -255,000;    0,000;285,00000
 337,09;   40,000; -542,000;    0,000;582,00000
 337,11;   -8,500; -288,000;    0,000;279,50000
 337,12;   -4,000;  449,000;    0,000;-453,00000
 337,14;  -46,000; -572,000;    0,000;526,00000
 337,16;  -29,500; -629,000;    0,000;599,50000
 337,17;  -46,500; -287,000;    0,000;240,50000
 337,19;  -19,500;  192,000;    0,000;-211,50000
 337,21;  -60,500; -484,000;    0,000;423,50000
 337,22;  -30,500; -284,000;    0,000;253,50000
 337,24;    8,000;   63,000;    0,000;-55,00000
 337,26;  -32,000;  349,000;    0,000;-381,00000
 337,27;  -43,000; -644,000;    0,000;601,00000
 337,29;   24,500; -304,000;    0,000;328,50000
 337,31;   30,500; -204,000;    0,000;234,50000
 337,32;   19,500;  292,000;    0,000;-272,50000
 337,34;    2,000; -692,000;    0,000;694,00000
 337,36;   15,000; -540,000;    0,000;555,00000
 337,37;    9,000; -148,000;    0,000;157,00000
 337,39;    3,000;  506,000;    0,000;-503,00000
 337,41;  -50,500; -426,000;    0,000;375,50000
 337,42;    8,500; -380,000;    0,000;388,50000
 337,44;   40,000; -236,000;    0,000;276,00000
 337,46;   -2,000;   40,000;    0,000;-42,00000
 337,47;    1,500; -743,000;    0,000;744,50000
 337,49;  -39,500; -501,000;    0,000;461,50000
 337,51;   12,000;  332,000;    0,000;-320,00000
 337,52;  -36,500;  -38,000;    0,000; 1,50000
 337,54;   12,500; -328,000;    0,000;340,50000
 337,56;    4,000; -543,000;    0,000;547,00000
 337,57;  -69,000;   47,000;    0,000;-116,00000
 337,59;   -4,500;  226,000;    0,000;-230,50000
 337,61;  -33,500; -807,000;    0,000;773,50000
 337,62;  -23,000; -312,000;    0,000;289,00000
 337,64;  -32,500; -234,000;    0,000;201,50000
 337,66;   -6,000;  -84,000;    0,000;78,00000
 337,67;  -12,500; -635,000;    0,000;622,50000
 337,69;  -36,000; -607,000;    0,000;571,00000
 337,71;  -14,500;  154,000;    0,000;-168,50000
 337,72;  -33,000;  -95,000;    0,000;62,00000
 337,74;   58,500; -474,000;    0,000;532,50000
 337,76;  -17,500; -533,000;    0,000;515,50000
 337,77;   53,500; -304,000;    0,000;357,50000
 337,79;    9,000; -171,000;    0,000;180,00000
 337,81;  -30,000; -672,000;    0,000;642,00000
 337,82;  -71,000; -361,000;    0,000;290,00000
 337,84;   14,000;   39,000;    0,000;-25,00000
 337,86;  -60,000;  578,000;    0,000;-638,00000
 337,87;  -20,000; -170,000;    0,000;150,00000
 337,89;  -28,500; -456,000;    0,000;427,50000
 337,91;  -44,000;  175,000;    0,000;-219,00000
 337,92;  -29,500;  164,000;    0,000;-193,50000
 337,94;  -19,500; -617,000;    0,000;597,50000
 337,95;  -44,500; -553,000;    0,000;508,50000
 337,97;    3,500;  -88,000;    0,000;91,50000
 337,99;  -36,500;  456,000;    0,000;-492,50000
 338,00;  -39,000; -702,000;    0,000;663,00000
 338,02;  -12,000; -206,000;    0,000;194,00000
 338,04;   43,500;  391,000;    0,000;-347,50000
 338,05;  -49,000;   14,000;    0,000;-63,00000
 338,07;   -3,500; -656,000;    0,000;652,50000
 338,09;   -2,000; -265,000;    0,000;263,00000
 338,10;   -0,500;  227,000;    0,000;-227,50000
 338,12;   38,500;  236,000;    0,000;-197,50000
 338,14;   49,500; -667,000;    0,000;716,50000
 338,15;    7,000; -306,000;    0,000;313,00000
 338,17;   20,500;  283,000;    0,000;-262,50000
 338,19;   34,000;  654,000;    0,000;-620,00000
 338,20;  -63,000; -834,000;    0,000;771,00000
 338,22;   -7,500; -497,000;    0,000;489,50000
 338,24;   -1,000;  165,000;    0,000;-166,00000
 338,25;  -34,000; 1032,000;    0,000;-1066,00000
 338,27;    2,000; -521,000;    0,000;523,00000
 338,29;   29,000; -337,000;    0,000;366,00000
 338,30;    1,000; -131,000;    0,000;132,00000
 338,32;   30,000;  143,000;    0,000;-113,00000
 338,33;   16,000; -350,000;    0,000;366,00000
 338,35;   19,500;  100,000;    0,000;-80,50000
 338,37;  -14,500;   29,000;    0,000;-43,50000
 338,38;   -9,000; -133,000;    0,000;124,00000
 338,40;  -70,000; -647,000;    0,000;577,00000
 338,42;   21,500;  493,000;    0,000;-471,50000
 338,43;  -16,500; -116,000;    0,000;99,50000
 338,45;  -25,000; -113,000;    0,000;88,00000
 338,47;   -2,500; -393,000;    0,000;390,50000
 338,48;    4,500;  -47,000;    0,000;51,50000
 338,50;    0,500;  182,000;    0,000;-181,50000
 338,52;    0,000;  174,000;    0,000;-174,00000
 338,53;   24,000; -371,000;    0,000;395,00000
 338,55;  -39,000; -324,000;    0,000;285,00000
 338,57;   -8,000;   46,000;    0,000;-54,00000
 338,58;  -51,500;  627,000;    0,000;-678,50000
 338,60;   20,000; -119,000;    0,000;139,00000
 338,61;  -59,500; -481,000;    0,000;421,50000
 338,63;  -20,500;  -48,000;    0,000;27,50000
 338,65;  -16,500;  221,000;    0,000;-237,50000
 338,66;    4,000; -633,000;    0,000;637,00000
 338,68;   17,500; -257,000;    0,000;274,50000
 338,70;   56,000;  -91,000;    0,000;147,00000
 338,71;  -70,000;  598,000;    0,000;-668,00000
 338,73;   46,500; -566,000;    0,000;612,50000
 338,75;   22,500;  332,000;    0,000;-309,50000
 338,76;  -12,500;  287,000;    0,000;-299,50000
 338,78;  -42,500;  803,000;    0,000;-845,50000
 338,80;    1,500; -429,000;    0,000;430,50000
 338,81;  -14,500;  -51,000;    0,000;36,50000
 338,83;  -49,000;  -50,000;    0,000; 1,00000
 338,84;  -45,500;  108,000;    0,000;-153,50000
 338,86;   36,500; -451,000;    0,000;487,50000
 338,88;  -25,000;  182,000;    0,000;-207,00000
 338,89;   28,500;  296,000;    0,000;-267,50000
 338,91;   31,000;  523,000;    0,000;-492,00000
 338,93;   35,000; -474,000;    0,000;509,00000
 338,94;  -39,000;  -55,000;    0,000;16,00000
 338,96;  -12,000;  135,000;    0,000;-147,00000
 338,98;    2,000;  432,000;    0,000;-430,00000
 338,99;  -20,000; -469,000;    0,000;449,00000
 339,01;   -6,000;   27,000;    0,000;-33,00000
 339,02;   59,500;  676,000;    0,000;-616,50000
 339,04;   -0,500; 1082,000;    0,000;-1082,50000
 339,06;   33,500;   44,000;    0,000;-10,50000
 339,07;   -7,500;   26,000;    0,000;-33,50000
 339,09;  -14,000;  501,000;    0,000;-515,00000
 339,11;  -33,000;  506,000;    0,000;-539,00000
 339,12;   32,500;  763,000;    0,000;-730,50000
 339,14;   16,500;  -60,000;    0,000;76,50000
 339,16;  -22,000;  689,000;    0,000;-711,00000
 339,17;   22,500; 1189,000;    0,000;-1166,50000
 339,19;   -9,500;  -35,000;    0,000;25,50000
 339,20;   12,500;  196,000;    0,000;-183,50000
 339,22;   41,000;  264,000;    0,000;-223,00000
 339,24;    0,500;  277,000;    0,000;-276,50000
 339,25;   16,000; -258,000;    0,000;274,00000
 339,27;  -11,000; -231,000;    0,000;220,00000
 339,29;    0,000;   -2,000;    0,000; 2,00000
 339,30;  -47,000; 1116,000;    0,000;-1163,00000
 339,32;  -15,000; -556,000;    0,000;541,00000
 339,34;  -26,500;  515,000;    0,000;-541,50000
 339,35;  -10,000;  422,000;    0,000;-432,00000
 339,37;   -6,500; 1007,000;    0,000;-1013,50000
 339,38;  -39,500; -470,000;    0,000;430,50000
 339,40;   -7,000;  -54,000;    0,000;47,00000
 339,42;   48,500;  -53,000;    0,000;101,50000
 339,43;   18,500;  231,000;    0,000;-212,50000
 339,45;   -8,500; -427,000;    0,000;418,50000
 339,47;  -14,000;  999,000;    0,000;-1013,00000
 339,48;   13,000;  167,000;    0,000;-154,00000
 339,50;   -8,000;  486,000;    0,000;-494,00000
 339,51;   18,000; -371,000;    0,000;389,00000
 339,53;  -18,500;  157,000;    0,000;-175,50000
 339,55;   38,000;  195,000;    0,000;-157,00000
 339,56;   -5,000;   22,000;    0,000;-27,00000
 339,58;   17,500; -279,000;    0,000;296,50000
 339,60;   -9,500; -317,000;    0,000;307,50000
 339,61;  -16,500; -160,000;    0,000;143,50000
 339,63;   -5,500;   48,000;    0,000;-53,50000
 339,64;   47,500;  -77,000;    0,000;124,50000
 339,66;  -63,500;  -37,000;    0,000;-26,50000
 339,68;    0,000;   65,000;    0,000;-65,00000
 339,69;  -30,000;  500,000;    0,000;-530,00000
 339,71;   42,000; -376,000;    0,000;418,00000
 339,73;   26,000;  -86,000;    0,000;112,00000
 339,74;    3,000; -147,000;    0,000;150,00000
 339,76;   -0,500;  353,000;    0,000;-353,50000
 339,77;    7,000; -620,000;    0,000;627,00000
 339,79;   28,500; -356,000;    0,000;384,50000
 339,81;   45,500;   89,000;    0,000;-43,50000
 339,82;   12,000;  -69,000;    0,000;81,00000
 339,84;   15,500;  188,000;    0,000;-172,50000
 339,86;   69,000;  172,000;    0,000;-103,00000
 339,87;   31,000;  378,000;    0,000;-347,00000
 339,89;   52,000;  197,000;    0,000;-145,00000
 339,90;   -4,000; -265,000;    0,000;261,00000
 339,92;  -11,500;   72,000;    0,000;-83,50000
 339,94;   28,000;   68,000;    0,000;-40,00000
 339,95;  -41,000;  743,000;    0,000;-784,00000
 339,97;  -16,500;   80,000;    0,000;-96,50000
 339,99;   -0,500;  -26,000;    0,000;25,50000
 340,00;   32,000;  240,000;    0,000;-208,00000
 340,02;   14,500;  530,000;    0,000;-515,50000
 340,03;    1,500; -125,000;    0,000;126,50000
 340,05;    3,000; -172,000;    0,000;175,00000
 340,07;  -11,500;  463,000;    0,000;-474,50000
 340,08;  -15,500;  516,000;    0,000;-531,50000
 340,10;   58,000;   95,000;    0,000;-37,00000
 340,12;   47,000;  320,000;    0,000;-273,00000
 340,13;  177,000;  624,000;    0,000;-447,00000
 340,15;  199,000;  862,000;    0,000;-663,00000
 340,16;  371,000;  420,000;    0,000;-49,00000
 340,18;  536,500;  590,000;    0,000;-53,50000
 340,20;  747,000;  614,000;    0,000;133,00000
 340,21;  850,000; 1278,000;    0,000;-428,00000
 340,23; 1052,000;  301,000;    0,000;751,00000
 340,25; 1597,000;  568,000;    0,000;1029,00000
 340,26; 2543,000; 1433,000;    0,000;1110,00000
 340,28; 4162,000; 1375,000;    0,000;2787,00000
 340,29; 4600,000;   17,000;    0,000;4583,00000
 340,31; 3288,500;  935,000;    0,000;2353,50000
 340,33; 1616,000; 1002,000;    0,000;614,00000
 340,34;  796,000;  919,000;    0,000;-123,00000
 340,36;  372,000; 1031,000;    0,000;-659,00000
 340,37;  188,500;  615,000;    0,000;-426,50000
 340,39;   99,000;  983,000;    0,000;-884,00000
 340,41;   49,500; 1245,000;    0,000;-1195,50000
 340,42;   46,000;  -89,000;    0,000;135,00000
 340,44;   48,500;   84,000;    0,000;-35,50000
 340,46;  -31,000;  417,000;    0,000;-448,00000
 340,47;   17,000; 1128,000;    0,000;-1111,00000
 340,49;   33,500; -178,000;    0,000;211,50000
 340,50;  -24,500;  330,000;    0,000;-354,50000
 340,52;   26,000;  418,000;    0,000;-392,00000
 340,54;   21,000;  443,000;    0,000;-422,00000
 340,55;   20,000;  182,000;    0,000;-162,00000
 340,57;   22,500;  435,000;    0,000;-412,50000
 340,58;   27,500;  457,000;    0,000;-429,50000
 340,60;   22,500;  831,000;    0,000;-808,50000
 340,62;  -18,000;  217,000;    0,000;-235,00000
 340,63;    9,500;  253,000;    0,000;-243,50000
 340,65;   27,000;  439,000;    0,000;-412,00000
 340,66;   -9,000;  341,000;    0,000;-350,00000
 340,68;   83,000;  337,000;    0,000;-254,00000
 340,70;   65,500; -319,000;    0,000;384,50000
 340,71;   14,500;  552,000;    0,000;-537,50000
 340,73;    3,000;  448,000;    0,000;-445,00000
 340,75;   30,000; -212,000;    0,000;242,00000
 340,76;   15,000;  189,000;    0,000;-174,00000
 340,78;  -60,500;  248,000;    0,000;-308,50000
 340,79;  -22,000;  404,000;    0,000;-426,00000
 340,81;  -29,500;  -48,000;    0,000;18,50000
 340,83;   -6,500;   16,000;    0,000;-22,50000
 340,84;    5,000;   60,000;    0,000;-55,00000
 340,86;   73,000;  996,000;    0,000;-923,00000
 340,87;   35,000; -280,000;    0,000;315,00000
 340,89;  -34,000; -212,000;    0,000;178,00000
 340,91;   36,500;  618,000;    0,000;-581,50000
 340,92;   -6,000;  276,000;    0,000;-282,00000
 340,94;  -12,500;  142,000;    0,000;-154,50000
 340,95;    9,000; -260,000;    0,000;269,00000
 340,97;   -1,500; -166,000;    0,000;164,50000
 340,99;   19,500;  823,000;    0,000;-803,50000
 341,00;   33,500; -388,000;    0,000;421,50000
 341,02;   43,500; -321,000;    0,000;364,50000
 341,03;   65,500;   44,000;    0,000;21,50000
 341,05;   -2,000;  677,000;    0,000;-679,00000
 341,07;   18,500; -503,000;    0,000;521,50000
 341,08;   -0,500;  174,000;    0,000;-174,50000
 341,10;   19,500;  297,000;    0,000;-277,50000
 341,12;   11,000;  936,000;    0,000;-925,00000
 341,13;   -4,500; -634,000;    0,000;629,50000
 341,15;   15,500;  -71,000;    0,000;86,50000
 341,16;  -29,500;  213,000;    0,000;-242,50000
 341,18;   -4,500;  941,000;    0,000;-945,50000
 341,20;   18,000;  246,000;    0,000;-228,00000
 341,21;  -25,000;  -63,000;    0,000;38,00000
 341,23;   -5,500; 1026,000;    0,000;-1031,50000
 341,24;   39,500;  953,000;    0,000;-913,50000
 341,26;  -23,500; -216,000;    0,000;192,50000
 341,28;   -8,500;  265,000;    0,000;-273,50000
 341,29;    0,500;  288,000;    0,000;-287,50000
 341,31;  -35,000;  647,000;    0,000;-682,00000
 341,32;   27,500; -244,000;    0,000;271,50000
 341,34;    4,500;  112,000;    0,000;-107,50000
 341,36;  -20,500;  -34,000;    0,000;13,50000
 341,37;    3,500;  436,000;    0,000;-432,50000
 341,39;   25,000; -421,000;    0,000;446,00000
 341,40;   -9,000; -232,000;    0,000;223,00000
 341,42;  -40,000;  298,000;    0,000;-338,00000
 341,44;  -20,500;  499,000;    0,000;-519,50000
 341,45;   42,500; -252,000;    0,000;294,50000
 341,47;   -1,000; -346,000;    0,000;345,00000
 341,48;   75,000;  234,000;    0,000;-159,00000
 341,50;  -29,500;  483,000;    0,000;-512,50000
 341,52;   40,500; -353,000;    0,000;393,50000
 341,53;   11,500; -546,000;    0,000;557,50000
 341,55;    7,500;  399,000;    0,000;-391,50000
 341,56;  -23,000;  515,000;    0,000;-538,00000
 341,58;   15,000;   63,000;    0,000;-48,00000
 341,59;   23,000; -150,000;    0,000;173,00000
 341,61;  -17,500; 1121,000;    0,000;-1138,50000
 341,63;  -36,500;  446,000;    0,000;-482,50000
 341,64;  -26,000; -251,000;    0,000;225,00000
 341,66;   45,000;  -74,000;    0,000;119,00000
 341,67;  -11,000;  513,000;    0,000;-524,00000
 341,69;  -44,500;  369,000;    0,000;-413,50000
 341,71;   47,500; -663,000;    0,000;710,50000
 341,72;    1,500; -271,000;    0,000;272,50000
 341,74;   30,500;  177,000;    0,000;-146,50000
 341,75;    4,000;  147,000;    0,000;-143,00000
 341,77;  -47,500; -620,000;    0,000;572,50000
 341,79;   -9,000; -197,000;    0,000;188,00000
 341,80;   10,500;  554,000;    0,000;-543,50000
 341,82;   32,500; 1017,000;    0,000;-984,50000
 341,83;   28,500; -663,000;    0,000;691,50000
 341,85;   -2,500;   34,000;    0,000;-36,50000
 341,87;    2,500;  191,000;    0,000;-188,50000
 341,88;  -20,000;  429,000;    0,000;-449,00000
 341,90;  -17,000; -656,000;    0,000;639,00000
 341,91;  -19,000; -369,000;    0,000;350,00000
 341,93;  -42,500;  135,000;    0,000;-177,50000
 341,95;   -4,000;  458,000;    0,000;-462,00000
 341,96;   10,500; -274,000;    0,000;284,50000
 341,98;   -5,000; -650,000;    0,000;645,00000
 341,99;   35,000;   57,000;    0,000;-22,00000
 342,01;  -13,000;  452,000;    0,000;-465,00000
 342,02;    1,500; -279,000;    0,000;280,50000
 342,04;   33,000; -573,000;    0,000;606,00000
 342,06;  -20,500;  429,000;    0,000;-449,50000
 342,07;  -47,000; -117,000;    0,000;70,00000
 342,09;  -18,000; -864,000;    0,000;846,00000
 342,10;   41,000; -559,000;    0,000;600,00000
 342,12;   38,000;  273,000;    0,000;-235,00000
 342,14;   13,000;  313,000;    0,000;-300,00000
 342,15;    5,500; -291,000;    0,000;296,50000
 342,17;  -14,500; -280,000;    0,000;265,50000
 342,18;   54,500;   58,000;    0,000;-3,50000
 342,20;   21,500;   33,000;    0,000;-11,50000
 342,22;   -4,000; -386,000;    0,000;382,00000
 342,23;  -14,000; -441,000;    0,000;427,00000
 342,25;   13,500;  420,000;    0,000;-406,50000
 342,26;  -41,000;  203,000;    0,000;-244,00000
 342,28;    8,500; -198,000;    0,000;206,50000
 342,29;  -24,500; -585,000;    0,000;560,50000
 342,31;  -39,500;  241,000;    0,000;-280,50000
 342,33;   22,000;   62,000;    0,000;-40,00000
 342,34;   -3,000; -195,000;    0,000;192,00000
 342,36;  -77,000; -833,000;    0,000;756,00000
 342,37;   17,500;   65,000;    0,000;-47,50000
 342,39;  -29,500;  -79,000;    0,000;49,50000
 342,41;   27,500; -513,000;    0,000;540,50000
 342,42;  -10,000; -543,000;    0,000;533,00000
 342,44;  -47,000; -205,000;    0,000;158,00000
 342,45;  -28,000;  263,000;    0,000;-291,00000
 342,47;   20,000;  -10,000;    0,000;30,00000
 342,48;   19,500; -800,000;    0,000;819,50000
 342,50;  -28,500;  236,000;    0,000;-264,50000
 342,52;   -4,000;  166,000;    0,000;-170,00000
 342,53;   14,500; -721,000;    0,000;735,50000
 342,55;   -2,500; -489,000;    0,000;486,50000
 342,56;  -25,500; -112,000;    0,000;86,50000
 342,58;  -36,000;   64,000;    0,000;-100,00000
 342,60;  -27,000;  161,000;    0,000;-188,00000
 342,61;   43,500; -680,000;    0,000;723,50000
 342,63;  -64,500;   21,000;    0,000;-85,50000
 342,64;   47,500;  482,000;    0,000;-434,50000
 342,66;   -3,500; -450,000;    0,000;446,50000
 342,67;   -8,000; -303,000;    0,000;295,00000
 342,69;    5,500;   62,000;    0,000;-56,50000
 342,71;    5,000;  425,000;    0,000;-420,00000
 342,72;   56,500; -867,000;    0,000;923,50000
 342,74;  -40,000; -601,000;    0,000;561,00000
 342,75;   53,500;   76,000;    0,000;-22,50000
 342,77;  -21,000;  -29,000;    0,000; 8,00000
 342,78;   -3,500; -762,000;    0,000;758,50000
 342,80;   17,000; -649,000;    0,000;666,00000
 342,82;    2,000;  143,000;    0,000;-141,00000
 342,83;  -23,000;  276,000;    0,000;-299,00000
 342,85;   18,500; -553,000;    0,000;571,50000
 342,86;  -10,500; -755,000;    0,000;744,50000
 342,88;   72,000;   33,000;    0,000;39,00000
 342,89;  -28,500;  314,000;    0,000;-342,50000
 342,91;   17,500; -524,000;    0,000;541,50000
 342,93;  -34,000; -544,000;    0,000;510,00000
 342,94;   20,500;  218,000;    0,000;-197,50000
 342,96;    6,500;  145,000;    0,000;-138,50000
 342,97;   -1,500; -693,000;    0,000;691,50000
 342,99;   41,000; -412,000;    0,000;453,00000
 343,01;    1,000; -132,000;    0,000;133,00000
 343,02;  -45,000;   -9,000;    0,000;-36,00000
 343,04;    9,000; -842,000;    0,000;851,00000
 343,05;   -9,000; -678,000;    0,000;669,00000
 343,07;  -54,500;  216,000;    0,000;-270,50000
 343,08;  -41,000;  452,000;    0,000;-493,00000
 343,10;   25,500; -863,000;    0,000;888,50000
 343,12;  -43,000;  -83,000;    0,000;40,00000
 343,13;   29,500;  181,000;    0,000;-151,50000
 343,15;  -10,000;  262,000;    0,000;-272,00000
 343,16;  -12,000;  488,000;    0,000;-500,00000
 343,18;   25,000; -297,000;    0,000;322,00000
 343,19;  -11,500;  152,000;    0,000;-163,50000
 343,21;    9,000;  409,000;    0,000;-400,00000
 343,22;  -26,000; -493,000;    0,000;467,00000
 343,24;  -40,500; -626,000;    0,000;585,50000
 343,26;  -19,000;  265,000;    0,000;-284,00000
 343,27;   35,500;    2,000;    0,000;33,50000
 343,29;  -83,000; -686,000;    0,000;603,00000
 343,30;   34,500; -216,000;    0,000;250,50000
 343,32;   17,500;  -83,000;    0,000;100,50000
 343,33;   -9,000;   47,000;    0,000;-56,00000
 343,35;    6,500; -875,000;    0,000;881,50000
 343,37;   -1,000; -565,000;    0,000;564,00000
 343,38;  -43,000;  312,000;    0,000;-355,00000
 343,40;  -16,500;   23,000;    0,000;-39,50000
 343,41;   51,500; -733,000;    0,000;784,50000
 343,43;  -41,500; -605,000;    0,000;563,50000
 343,44;  -38,500;  341,000;    0,000;-379,50000
 343,46;  -18,000;  296,000;    0,000;-314,00000
 343,48;   -2,500; -881,000;    0,000;878,50000
 343,49;   -7,000; -372,000;    0,000;365,00000
 343,51;   34,000;  289,000;    0,000;-255,00000
 343,52;  -22,000;  -15,000;    0,000;-7,00000
 343,54;  -30,500; -116,000;    0,000;85,50000
 343,55;    9,500; -764,000;    0,000;773,50000
 343,57;   33,000; -108,000;    0,000;141,00000
 343,59;  -51,500;   99,000;    0,000;-150,50000
 343,60;   12,000; -372,000;    0,000;384,00000
 343,62;   24,000; -682,000;    0,000;706,00000
 343,63;   32,500;   18,000;    0,000;14,50000
 343,65;  -35,000;  -70,000;    0,000;35,00000
 343,66;  -28,000; -699,000;    0,000;671,00000
 343,68;   57,500; -312,000;    0,000;369,50000
 343,69;   29,000;  -13,000;    0,000;42,00000
 343,71;   -8,000;  581,000;    0,000;-589,00000
 343,73;  -55,000; -641,000;    0,000;586,00000
 343,74;   12,500; -691,000;    0,000;703,50000
 343,76;   -2,500;  196,000;    0,000;-198,50000
 343,77;  -43,000;  366,000;    0,000;-409,00000
 343,79;  -51,000; -394,000;    0,000;343,00000
 343,80;  -23,000; -360,000;    0,000;337,00000
 343,82;    7,000;  -24,000;    0,000;31,00000
 343,83;  -30,000;  298,000;    0,000;-328,00000
 343,85;    4,000; -881,000;    0,000;885,00000
 343,87;    1,000; -399,000;    0,000;400,00000
 343,88;   -8,500;  -74,000;    0,000;65,50000
 343,90;  -75,000;  -74,000;    0,000;-1,00000
 343,91;   36,000; -783,000;    0,000;819,00000
 343,93;   -5,500; -606,000;    0,000;600,50000
 343,94;  -28,500; -102,000;    0,000;73,50000
 343,96;   24,500; -185,000;    0,000;209,50000
 343,98;   48,000; -607,000;    0,000;655,00000
 343,99;   -8,500; -349,000;    0,000;340,50000
 344,01;    3,000;  -55,000;    0,000;58,00000
 344,02;  -26,500;  279,000;    0,000;-305,50000
 344,04;    0,000;  -93,000;    0,000;93,00000
 344,05;  -24,500; -425,000;    0,000;400,50000
 344,07;   42,500;  -71,000;    0,000;113,50000
 344,08;   16,000;    1,000;    0,000;15,00000
 344,10;   10,500; -499,000;    0,000;509,50000
 344,12;  -21,500; -518,000;    0,000;496,50000
 344,13;    5,500;  -29,000;    0,000;34,50000
 344,15;   18,000;  305,000;    0,000;-287,00000
 344,16;  -34,000; -624,000;    0,000;590,00000
 344,18;    2,500; -155,000;    0,000;157,50000
 344,19;   14,000;   65,000;    0,000;-51,00000
 344,21;   19,500;  432,000;    0,000;-412,50000
 344,22;    2,500; -490,000;    0,000;492,50000
 344,24;  -22,500; -430,000;    0,000;407,50000
 344,25;  -12,000;  488,000;    0,000;-500,00000
 344,27;  -58,500;  377,000;    0,000;-435,50000
 344,29;   -6,500; -650,000;    0,000;643,50000
 344,30;  -41,000; -515,000;    0,000;474,00000
 344,32;   47,500;  253,000;    0,000;-205,50000
 344,33;   18,500;  428,000;    0,000;-409,50000
 344,35;  -27,500; -662,000;    0,000;634,50000
 344,36;   -1,000;  -39,000;    0,000;38,00000
 344,38;  -17,500;   64,000;    0,000;-81,50000
 344,39;   33,000;  229,000;    0,000;-196,00000
 344,41;   -7,000; -354,000;    0,000;347,00000
 344,43;  -26,500;  -71,000;    0,000;44,50000
 344,44;    4,000; -150,000;    0,000;154,00000
 344,46;    2,500;  456,000;    0,000;-453,50000
 344,47;  -33,500; -658,000;    0,000;624,50000
 344,49;   14,000; -169,000;    0,000;183,00000
 344,50;  -40,500;  272,000;    0,000;-312,50000
 344,52;  -12,500;  245,000;    0,000;-257,50000
 344,53;  -22,000; -764,000;    0,000;742,00000
 344,55;  -41,000; -279,000;    0,000;238,00000
 344,56;   28,000;   11,000;    0,000;17,00000
 344,58;   11,000;  752,000;    0,000;-741,00000
 344,60;  -23,500; -658,000;    0,000;634,50000
 344,61;    7,500; -358,000;    0,000;365,50000
 344,63;  -39,000;  518,000;    0,000;-557,00000
 344,64;   50,500;  568,000;    0,000;-517,50000
 344,66;   35,000; -632,000;    0,000;667,00000
 344,67;    4,500; -477,000;    0,000;481,50000
 344,69;   20,500;  487,000;    0,000;-466,50000
 344,70;   16,000;  291,000;    0,000;-275,00000
 344,72;  -53,000; -322,000;    0,000;269,00000
 344,73;  -11,000; -286,000;    0,000;275,00000
 344,75;   48,000;  171,000;    0,000;-123,00000
 344,77;    6,500;  588,000;    0,000;-581,50000
 344,78;  -42,000; -373,000;    0,000;331,00000
 344,80;  -51,000; -497,000;    0,000;446,00000
 344,81;  -21,000;  407,000;    0,000;-428,00000
 344,83;  -28,500;  348,000;    0,000;-376,50000
 344,84;   24,000; -510,000;    0,000;534,00000
 344,86;   -6,500; -458,000;    0,000;451,50000
 344,87;    1,000;  995,000;    0,000;-994,00000
 344,89;  -60,000;  312,000;    0,000;-372,00000
 344,90;   -6,500; -230,000;    0,000;223,50000
 344,92;  -20,500; -167,000;    0,000;146,50000
 344,93;   -7,500; -105,000;    0,000;97,50000
 344,95;   59,000;  746,000;    0,000;-687,00000
 344,97;    2,000; -508,000;    0,000;510,00000
 344,98;  -42,500; -493,000;    0,000;450,50000
 345,00;   -0,500;  444,000;    0,000;-444,50000
 345,01;  -46,000;  500,000;    0,000;-546,00000
 345,03;    9,000; -495,000;    0,000;504,00000
 345,04;  -19,500;  574,000;    0,000;-593,50000
 345,06;  -22,500;  693,000;    0,000;-715,50000
 345,07;  -15,000;  346,000;    0,000;-361,00000
 345,09;  -17,000; -216,000;    0,000;199,00000
 345,10;   21,000;  -21,000;    0,000;42,00000
 345,12;  -13,000;  295,000;    0,000;-308,00000
 345,13;   21,500; 1103,000;    0,000;-1081,50000
 345,15;   26,500; -415,000;    0,000;441,50000
 345,17;   38,000; -264,000;    0,000;302,00000
 345,18;  -35,000;  221,000;    0,000;-256,00000
 345,20;  -30,000;  514,000;    0,000;-544,00000
 345,21;   13,500; -243,000;    0,000;256,50000
 345,23;  -12,500;  -93,000;    0,000;80,50000
 345,24;   -2,000;  102,000;    0,000;-104,00000
 345,26;  -36,000;  589,000;    0,000;-625,00000
 345,27;  -12,500;  -39,000;    0,000;26,50000
 345,29;   -6,000;  -31,000;    0,000;25,00000
 345,30;  -17,500;  413,000;    0,000;-430,50000
 345,32;   27,500; 1215,000;    0,000;-1187,50000
 345,33;  -22,500; -324,000;    0,000;301,50000
 345,35;  -24,500; -203,000;    0,000;178,50000
 345,37;   -1,500;  558,000;    0,000;-559,50000
 345,38;  -73,500;  531,000;    0,000;-604,50000
 345,40;   50,500; -373,000;    0,000;423,50000
 345,41;   23,500;  244,000;    0,000;-220,50000
 345,43;   21,500;  564,000;    0,000;-542,50000
 345,44;   16,000;  605,000;    0,000;-589,00000
 345,46;   -1,000; -405,000;    0,000;404,00000
 345,47;  -42,000;  102,000;    0,000;-144,00000
 345,49;   -5,500;  166,000;    0,000;-171,50000
 345,50;  -65,500;  848,000;    0,000;-913,50000
 345,52;    5,500; -458,000;    0,000;463,50000
 345,53;  -24,000;  140,000;    0,000;-164,00000
 345,55;   -9,500;  363,000;    0,000;-372,50000
 345,56;   20,000;  801,000;    0,000;-781,00000
 345,58;    4,000; -138,000;    0,000;142,00000
 345,59;  -11,000;  143,000;    0,000;-154,00000
 345,61;   32,000;  310,000;    0,000;-278,00000
 345,63;  -15,500;  806,000;    0,000;-821,50000
 345,64;   57,500; -792,000;    0,000;849,50000
 345,66;  -19,500;  249,000;    0,000;-268,50000
 345,67;  -29,500;  813,000;    0,000;-842,50000
 345,69;  -41,500; 1251,000;    0,000;-1292,50000
 345,70;   53,000; -275,000;    0,000;328,00000
 345,72;  -16,500;  -26,000;    0,000; 9,50000
 345,73;   41,000;  510,000;    0,000;-469,00000
 345,75;   -4,500;  527,000;    0,000;-531,50000
 345,76;   21,000; -353,000;    0,000;374,00000
 345,78;  -34,000;  457,000;    0,000;-491,00000
 345,79;   14,500;  773,000;    0,000;-758,50000
 345,81;   -5,000;  551,000;    0,000;-556,00000
 345,82;   21,500;  -73,000;    0,000;94,50000
 345,84;   48,000;  172,000;    0,000;-124,00000
 345,85;   20,500;  354,000;    0,000;-333,50000
 345,87;    6,000;  703,000;    0,000;-697,00000
 345,88;   -1,000; -187,000;    0,000;186,00000
 345,90;   -1,000;   70,000;    0,000;-71,00000
 345,92;   45,000;  488,000;    0,000;-443,00000
 345,93;   -7,000;  843,000;    0,000;-850,00000
 345,95;   16,000;  179,000;    0,000;-163,00000
 345,96;  -15,000; -107,000;    0,000;92,00000
 345,98;   59,500;  603,000;    0,000;-543,50000
 345,99;   42,000;  418,000;    0,000;-376,00000
 346,01;   -9,000;   33,000;    0,000;-42,00000
 346,02;  -22,500; -294,000;    0,000;271,50000
 346,04;  -18,500;  464,000;    0,000;-482,50000
 346,05;  -53,500;  328,000;    0,000;-381,50000
 346,07;  -35,500; -467,000;    0,000;431,50000
 346,08;   25,000;  -19,000;    0,000;44,00000
 346,10;   38,500;  423,000;    0,000;-384,50000
 346,11;   -4,500;  498,000;    0,000;-502,50000
 346,13;   17,000;  -50,000;    0,000;67,00000
 346,14;   36,500;  219,000;    0,000;-182,50000
 346,16;   34,500;  530,000;    0,000;-495,50000
 346,17;  -24,000; 1114,000;    0,000;-1138,00000
 346,19;  -27,500; -431,000;    0,000;403,50000
 346,20;    5,000;   -9,000;    0,000;14,00000
 346,22;   44,000;  503,000;    0,000;-459,00000
 346,23;    5,000;  373,000;    0,000;-368,00000
 346,25;  -56,000; -345,000;    0,000;289,00000
 346,26;    8,500;   -7,000;    0,000;15,50000
 346,28;  -10,000;  531,000;    0,000;-541,00000
 346,30;  101,500; 1272,000;    0,000;-1170,50000
 346,31;   -2,500; -132,000;    0,000;129,50000
 346,33;  -33,500;   62,000;    0,000;-95,50000
 346,34;   45,000; 1052,000;    0,000;-1007,00000
 346,36;   66,500;  602,000;    0,000;-535,50000
 346,37;  160,500;   36,000;    0,000;124,50000
 346,39;  220,000;  534,000;    0,000;-314,00000
 346,40;  316,000;  625,000;    0,000;-309,00000
 346,42;  516,000; 1656,000;    0,000;-1140,00000
 346,43;  756,000;   29,000;    0,000;727,00000
 346,45; 1048,500;  656,000;    0,000;392,50000
 346,46; 1151,000;  723,000;    0,000;428,00000
 346,48; 1288,500; 1063,000;    0,000;225,50000
 346,49; 1673,000;  190,000;    0,000;1483,00000
 346,51; 2518,500;  517,000;    0,000;2001,50000
 346,52; 3967,000;  558,000;    0,000;3409,00000
 346,54; 6427,000; 2368,000;    0,000;4059,00000
 346,55; 6775,000;  127,000;    0,000;6648,00000
 346,57; 4827,000;  959,000;    0,000;3868,00000
 346,58; 2887,000; 1420,000;    0,000;1467,00000
 346,60; 1942,000;  869,000;    0,000;1073,00000
 346,61; 1498,000;  -86,000;    0,000;1584,00000
 346,63; 1258,000;  140,000;    0,000;1118,00000
 346,64; 1570,000; 1417,000;    0,000;153,00000
 346,66; 2174,000; 1590,000;    0,000;584,00000
 346,67; 3545,500;   22,000;    0,000;3523,50000
 346,69; 4522,500;  255,000;    0,000;4267,50000
 346,70; 4291,000; 1212,000;    0,000;3079,00000
 346,72; 2390,500;  871,000;    0,000;1519,50000
 346,73; 1357,500;  593,000;    0,000;764,50000
 346,75;  606,000;  549,000;    0,000;57,00000
 346,76;  339,000;  249,000;    0,000;90,00000
 346,78;  217,000;  850,000;    0,000;-633,00000
 346,79;  210,000;  261,000;    0,000;-51,00000
 346,81;  107,000;  409,000;    0,000;-302,00000
 346,82;  130,500;  728,000;    0,000;-597,50000
 346,84;   96,000;  877,000;    0,000;-781,00000
 346,85;   12,500;  297,000;    0,000;-284,50000
 346,87;   68,500;  103,000;    0,000;-34,50000
 346,88;   74,500;  890,000;    0,000;-815,50000
 346,90;   50,500;  868,000;    0,000;-817,50000
 346,91;   84,000;  534,000;    0,000;-450,00000
 346,93;   17,500;  357,000;    0,000;-339,50000
 346,94;   75,000;  449,000;    0,000;-374,00000
 346,96;    4,500;  581,000;    0,000;-576,50000
 346,97;   16,000;  -20,000;    0,000;36,00000
 346,99;   14,500;   53,000;    0,000;-38,50000
 347,00;   42,500;   96,000;    0,000;-53,50000
 347,02;   36,000;  873,000;    0,000;-837,00000
 347,04;   23,000; -160,000;    0,000;183,00000
 347,05;   58,500;  216,000;    0,000;-157,50000
 347,07;   62,000;  622,000;    0,000;-560,00000
 347,08;   13,500; 1548,000;    0,000;-1534,50000
 347,10;   41,500;  398,000;    0,000;-356,50000
 347,11;   42,000;  584,000;    0,000;-542,00000
 347,13;   18,000;  256,000;    0,000;-238,00000
 347,14;   21,500; 1119,000;    0,000;-1097,50000
 347,16;   44,500;  -52,000;    0,000;96,50000
 347,17;   13,500; -109,000;    0,000;122,50000
 347,19;   68,500;  432,000;    0,000;-363,50000
 347,20;   -4,500;  926,000;    0,000;-930,50000
 347,22;   53,500; -173,000;    0,000;226,50000
 347,23;    7,500;  166,000;    0,000;-158,50000
 347,25;  -72,500;   13,000;    0,000;-85,50000
 347,26;   42,500;  970,000;    0,000;-927,50000
 347,28;   44,500; -589,000;    0,000;633,50000
 347,29;   22,000;  398,000;    0,000;-376,00000
 347,31;   19,500;  289,000;    0,000;-269,50000
 347,32;   28,000; 1023,000;    0,000;-995,00000
 347,34;   45,000;  117,000;    0,000;-72,00000
 347,35;   20,500;  792,000;    0,000;-771,50000
 347,37;   79,500;   41,000;    0,000;38,50000
 347,38;   15,500;  689,000;    0,000;-673,50000
 347,40;  -36,000; -277,000;    0,000;241,00000
 347,41;   17,000;  105,000;    0,000;-88,00000
 347,42;   47,000;  756,000;    0,000;-709,00000
 347,44;  -21,500;  715,000;    0,000;-736,50000
 347,45;   49,500;  134,000;    0,000;-84,50000
 347,47;  -29,500;  496,000;    0,000;-525,50000
 347,48;   27,500;  634,000;    0,000;-606,50000
 347,50;  -43,000;  494,000;    0,000;-537,00000
 347,51;  -22,000; -297,000;    0,000;275,00000
 347,53;   -1,500;  135,000;    0,000;-136,50000
 347,54;  -13,000;  804,000;    0,000;-817,00000
 347,56;  -27,500;  791,000;    0,000;-818,50000
 347,57;   33,000;   85,000;    0,000;-52,00000
 347,59;   20,500;  290,000;    0,000;-269,50000
 347,60;  -18,000;  239,000;    0,000;-257,00000
 347,62;  -43,000;  468,000;    0,000;-511,00000
 347,63;   63,000; -487,000;    0,000;550,00000
 347,65;  -22,000;  203,000;    0,000;-225,00000
 347,66;   -7,000;  173,000;    0,000;-180,00000
 347,68;  -24,500;  790,000;    0,000;-814,50000
 347,69;   34,500; -274,000;    0,000;308,50000
 347,71;  -18,000;  167,000;    0,000;-185,00000
 347,72;   75,500;  797,000;    0,000;-721,50000
 347,74;   26,000;  655,000;    0,000;-629,00000
 347,75;  -12,500; -155,000;    0,000;142,50000
 347,77;  -13,000;  467,000;    0,000;-480,00000
 347,78;   35,500;  235,000;    0,000;-199,50000
 347,80;   -9,000;  749,000;    0,000;-758,00000
 347,81;   -5,000; -183,000;    0,000;178,00000
 347,83;  -32,000;   41,000;    0,000;-73,00000
 347,84;  -18,500;  633,000;    0,000;-651,50000
 347,86;   39,500; 1428,000;    0,000;-1388,50000
 347,87;   24,000;   24,000;    0,000; 0,00000
 347,89;   38,000; -109,000;    0,000;147,00000
 347,90;    3,500;  290,000;    0,000;-286,50000
 347,92;  -11,000; 1007,000;    0,000;-1018,00000
 347,93;   12,500;  116,000;    0,000;-103,50000
 347,95;   25,500;  286,000;    0,000;-260,50000
 347,96;  -17,500;  389,000;    0,000;-406,50000
 347,98;   -5,500;  311,000;    0,000;-316,50000
 347,99;   -7,000; -497,000;    0,000;490,00000
 348,01;  -13,000; -300,000;    0,000;287,00000
 348,02;   41,500;  605,000;    0,000;-563,50000
 348,04;    3,500;  769,000;    0,000;-765,50000
 348,05;   37,000; -367,000;    0,000;404,00000
 348,07;  -54,000; -100,000;    0,000;46,00000
 348,08;   36,500;  530,000;    0,000;-493,50000
 348,10;  -40,000;  769,000;    0,000;-809,00000
 348,11;   26,500; -592,000;    0,000;618,50000
 348,13;   28,000; -213,000;    0,000;241,00000
 348,14;   47,000;   -2,000;    0,000;49,00000
 348,16;    1,000;  777,000;    0,000;-776,00000
 348,17;  -14,500; -184,000;    0,000;169,50000
 348,18;  -31,000; -282,000;    0,000;251,00000
 348,20;    6,000;  629,000;    0,000;-623,00000
 348,21;  -23,000;  669,000;    0,000;-692,00000
 348,23;   12,000; -488,000;    0,000;500,00000
 348,24;   -0,500;    6,000;    0,000;-6,50000
 348,26;   -6,500;  479,000;    0,000;-485,50000
 348,27;   -7,500;  733,000;    0,000;-740,50000
 348,29;    4,500; -486,000;    0,000;490,50000
 348,30;   18,500; -430,000;    0,000;448,50000
 348,32;   -9,500;  199,000;    0,000;-208,50000
 348,33;   19,000;  638,000;    0,000;-619,00000
 348,35;  -24,000; -630,000;    0,000;606,00000
 348,36;  -10,000; -435,000;    0,000;425,00000
 348,38;   -7,000;  -29,000;    0,000;22,00000
 348,39;  -27,000;  322,000;    0,000;-349,00000
 348,41;  -25,000; -757,000;    0,000;732,00000
 348,42;   19,500; -493,000;    0,000;512,50000
 348,44;   21,500;  598,000;    0,000;-576,50000
 348,45;    6,000;  280,000;    0,000;-274,00000
 348,47;    1,000; -257,000;    0,000;258,00000
 348,48;   -1,000; -100,000;    0,000;99,00000
 348,50;   14,500;  527,000;    0,000;-512,50000
 348,51;  -36,500;   57,000;    0,000;-93,50000
 348,53;  -27,000; -380,000;    0,000;353,00000
 348,54;    6,000; -464,000;    0,000;470,00000
 348,55;    4,000;  -48,000;    0,000;52,00000
 348,57;  -28,000;  272,000;    0,000;-300,00000
 348,58;   43,500; -466,000;    0,000;509,50000
 348,60;  -39,000; -448,000;    0,000;409,00000
 348,61;  -19,000; -250,000;    0,000;231,00000
 348,63;    0,500;  674,000;    0,000;-673,50000
 348,64;  -22,000; -646,000;    0,000;624,00000
 348,66;   21,000; -739,000;    0,000;760,00000
 348,67;  -16,500; -146,000;    0,000;129,50000
 348,69;  -38,000;  361,000;    0,000;-399,00000
 348,70;  -42,000; -781,000;    0,000;739,00000
 348,72;  -20,500;  -23,000;    0,000; 2,50000
 348,73;    5,000;  334,000;    0,000;-329,00000
 348,75;   14,000;  203,000;    0,000;-189,00000
 348,76;  -22,500; -366,000;    0,000;343,50000
 348,78;   -9,500; -600,000;    0,000;590,50000
 348,79;  -33,500; -268,000;    0,000;234,50000
 348,81;  -46,000; -117,000;    0,000;71,00000
 348,82;    1,500; -655,000;    0,000;656,50000
 348,83;   16,000;  121,000;    0,000;-105,00000
 348,85;   10,000; -206,000;    0,000;216,00000
 348,86;  -18,000; -172,000;    0,000;154,00000
 348,88;    1,500; -503,000;    0,000;504,50000
 348,89;  -35,500; -779,000;    0,000;743,50000
 348,91;   -7,500;    8,000;    0,000;-15,50000
 348,92;   34,500;   61,000;    0,000;-26,50000
 348,94;  -14,000; -248,000;    0,000;234,00000
 348,95;  -29,500; -439,000;    0,000;409,50000
 348,97;    8,000;  -60,000;    0,000;68,00000
 348,98;  -15,500;  430,000;    0,000;-445,50000
 349,00;  -18,000; -826,000;    0,000;808,00000
 349,01;   -7,500; -410,000;    0,000;402,50000
 349,03;  -63,000; -246,000;    0,000;183,00000
 349,04;   47,500;  262,000;    0,000;-214,50000
 349,05;   29,000; -145,000;    0,000;174,00000
 349,07;   10,500; -269,000;    0,000;279,50000
 349,08;   13,000;  -13,000;    0,000;26,00000
 349,10;    3,000;   59,000;    0,000;-56,00000
 349,11;   17,500; -641,000;    0,000;658,50000
 349,13;  -17,000; -316,000;    0,000;299,00000
 349,14;  -21,000; -361,000;    0,000;340,00000
 349,16;  -22,000;   64,000;    0,000;-86,00000
 349,17;  -52,000; -643,000;    0,000;591,00000
 349,19;   -3,000; -558,000;    0,000;555,00000
 349,20;   34,500; -264,000;    0,000;298,50000
 349,22;  -54,000;   46,000;    0,000;-100,00000
 349,23;    1,500; -786,000;    0,000;787,50000
 349,25;  -34,500; -881,000;    0,000;846,50000
 349,26;   47,500;  529,000;    0,000;-481,50000
 349,27;   -4,500;   92,000;    0,000;-96,50000
 349,29;   70,500; -643,000;    0,000;713,50000
 349,30;  -28,000; -273,000;    0,000;245,00000
 349,32;   18,500;  -81,000;    0,000;99,50000
 349,33;  -44,000;  507,000;    0,000;-551,00000
 349,35;   -0,500; -770,000;    0,000;769,50000
 349,36;  -13,000; -571,000;    0,000;558,00000
 349,38;    5,500;  -49,000;    0,000;54,50000
 349,39;   60,000;   16,000;    0,000;44,00000
 349,41;   36,500; -609,000;    0,000;645,50000
 349,42;   24,500; -345,000;    0,000;369,50000
 349,44;   10,000;   28,000;    0,000;-18,00000
 349,45;    9,500; -408,000;    0,000;417,50000
 349,46;   10,000; -256,000;    0,000;266,00000
 349,48;   -1,000; -312,000;    0,000;311,00000
 349,49;    2,000;  -29,000;    0,000;31,00000
 349,51;  -12,500;  270,000;    0,000;-282,50000
 349,52;  -28,500; -798,000;    0,000;769,50000
 349,54;   -1,500; -576,000;    0,000;574,50000
 349,55;    1,500; -438,000;    0,000;439,50000
 349,57;    4,500; -382,000;    0,000;386,50000
 349,58;    0,500; -395,000;    0,000;395,50000
 349,60;   17,500; -537,000;    0,000;554,50000
 349,61;    9,000;  -62,000;    0,000;71,00000
 349,62;   -1,000;  225,000;    0,000;-226,00000
 349,64;  -15,000; -531,000;    0,000;516,00000
 349,65;  -22,000;  137,000;    0,000;-159,00000
 349,67;   56,500;  -91,000;    0,000;147,50000
 349,68;   -5,000;  -71,000;    0,000;66,00000
 349,70;   40,500; -492,000;    0,000;532,50000
 349,71;   21,000;  -17,000;    0,000;38,00000
 349,73;   18,500; -346,000;    0,000;364,50000
 349,74;   -6,500;  115,000;    0,000;-121,50000
 349,76;   13,000; -370,000;    0,000;383,00000
 349,77;   -4,500; -220,000;    0,000;215,50000
 349,78;  -31,500; -145,000;    0,000;113,50000
 349,80;   -3,500;  185,000;    0,000;-188,50000
 349,81;    1,500; -503,000;    0,000;504,50000
 349,83;   35,000; -105,000;    0,000;140,00000
 349,84;  -16,500;  380,000;    0,000;-396,50000
 349,86;  -26,000;  432,000;    0,000;-458,00000
 349,87;    7,000; -270,000;    0,000;277,00000
 349,89;   11,500;  117,000;    0,000;-105,50000
 349,90;   56,000;  535,000;    0,000;-479,00000
 349,92;   11,500; 1076,000;    0,000;-1064,50000
 349,93;   32,500;  386,000;    0,000;-353,50000
 349,94;    7,000;  711,000;    0,000;-704,00000
 349,96;   17,500; 1250,000;    0,000;-1232,50000
 349,97;  -10,500;  686,000;    0,000;-696,50000
 349,99;  -31,500; -516,000;    0,000;484,50000
 350,00;   34,500; -117,000;    0,000;151,50000
 350,02;  -12,500; -171,000;    0,000;158,50000
 350,03;   23,000;   25,000;    0,000;-2,00000
 350,05;   72,500; -785,000;    0,000;857,50000
 350,06;   14,500; -434,000;    0,000;448,50000
 350,08;  -31,000; -451,000;    0,000;420,00000
 350,09;   14,500;  283,000;    0,000;-268,50000
 350,10;   -9,000; -464,000;    0,000;455,00000
 350,12;  -26,000;  270,000;    0,000;-296,00000
 350,13;  -24,000; -265,000;    0,000;241,00000
 350,15;   19,000;  -13,000;    0,000;32,00000
 350,16;   21,000; -787,000;    0,000;808,00000
 350,18;  -25,000; -246,000;    0,000;221,00000
 350,19;  -10,000; -247,000;    0,000;237,00000
 350,21;    2,500;   88,000;    0,000;-85,50000
 350,22;   -2,000; -647,000;    0,000;645,00000
 350,23;   45,000; -585,000;    0,000;630,00000
 350,25;  -10,000; -157,000;    0,000;147,00000
 350,26;  -23,500;  459,000;    0,000;-482,50000
 350,28;   -9,000; -592,000;    0,000;583,00000
 350,29;    2,500;   -3,000;    0,000; 5,50000
 350,31;   22,500; -313,000;    0,000;335,50000
 350,32;  -15,500;  -28,000;    0,000;12,50000
 350,34;  -32,000; -755,000;    0,000;723,00000
 350,35;   49,000;  -64,000;    0,000;113,00000
 350,36;  -20,000; -248,000;    0,000;228,00000
 350,38;  -18,500;   16,000;    0,000;-34,50000
 350,39;   16,000; -588,000;    0,000;604,00000
 350,41;   -1,500; -509,000;    0,000;507,50000
 350,42;   32,500;   -8,000;    0,000;40,50000
 350,44;  -47,500;  208,000;    0,000;-255,50000
 350,45;   29,500; -536,000;    0,000;565,50000
 350,47;  -13,500; -410,000;    0,000;396,50000
 350,48;   54,000; -499,000;    0,000;553,00000
 350,49;  -22,500; -146,000;    0,000;123,50000
 350,51;   11,000; -530,000;    0,000;541,00000
 350,52;   18,000; -474,000;    0,000;492,00000
 350,54;    9,000;   -3,000;    0,000;12,00000
 350,55;  -61,500;  177,000;    0,000;-238,50000
 350,57;   11,500; -775,000;    0,000;786,50000
 350,58;  -38,000;  197,000;    0,000;-235,00000
 350,59;  -51,000; -457,000;    0,000;406,00000
 350,61;  -17,000;  133,000;    0,000;-150,00000
 350,62;  -27,000; -104,000;    0,000;77,00000
 350,64;   -3,000; -447,000;    0,000;444,00000
 350,65;   -8,500; -292,000;    0,000;283,50000
 350,67;   27,000;  168,000;    0,000;-141,00000
 350,68;    7,500; -678,000;    0,000;685,50000
 350,70;  -42,000; -474,000;    0,000;432,00000
 350,71;  -32,000;  -38,000;    0,000; 6,00000
 350,72;   11,000; -354,000;    0,000;365,00000
 350,74;   42,000; -618,000;    0,000;660,00000
 350,75;   46,000; -319,000;    0,000;365,00000
 350,77;    8,000; -513,000;    0,000;521,00000
 350,78;  -36,500; -309,000;    0,000;272,50000
 350,80;    8,500; -565,000;    0,000;573,50000
 350,81;   29,500;  455,000;    0,000;-425,50000
 350,82;   -3,500; -242,000;    0,000;238,50000
 350,84;  -30,500;  420,000;    0,000;-450,50000
 350,85;  -23,500; -495,000;    0,000;471,50000
 350,87;  -19,000; -406,000;    0,000;387,00000
 350,88;  -13,500; -259,000;    0,000;245,50000
 350,90;   15,500; -101,000;    0,000;116,50000
 350,91;    7,500; -602,000;    0,000;609,50000
 350,92;   24,000; -241,000;    0,000;265,00000
 350,94;    5,000; -119,000;    0,000;124,00000
 350,95;    4,500;  -19,000;    0,000;23,50000
 350,97;   -4,500; -263,000;    0,000;258,50000
 350,98;    8,500; -407,000;    0,000;415,50000
 351,00;  -18,500; -217,000;    0,000;198,50000
 351,01;    5,000;  427,000;    0,000;-422,00000
 351,02;  -17,000; -772,000;    0,000;755,00000
 351,04;  -16,000; -411,000;    0,000;395,00000
 351,05;  -23,000; -354,000;    0,000;331,00000
 351,07;  -17,500;  270,000;    0,000;-287,50000
 351,08;  -14,000; -525,000;    0,000;511,00000
 351,10;  -22,000; -108,000;    0,000;86,00000
 351,11;   11,500; -126,000;    0,000;137,50000
 351,12;   -6,000; -225,000;    0,000;219,00000
 351,14;   58,000; -591,000;    0,000;649,00000
 351,15;   25,500;  312,000;    0,000;-286,50000
 351,17;  -11,000; -250,000;    0,000;239,00000
 351,18;  -23,000;  805,000;    0,000;-828,00000
 351,20;   -4,000; -665,000;    0,000;661,00000
 351,21;   11,500; -319,000;    0,000;330,50000
 351,22;   19,500; -346,000;    0,000;365,50000
 351,24;  -60,000;   69,000;    0,000;-129,00000
 351,25;  -54,500; -514,000;    0,000;459,50000
 351,27;  -64,500; -446,000;    0,000;381,50000
 351,28;    4,500; -174,000;    0,000;178,50000
 351,30;   -8,000;  103,000;    0,000;-111,00000
 351,31;   23,000; -446,000;    0,000;469,00000
 351,32;   26,000; -203,000;    0,000;229,00000
 351,34;  -24,500;   53,000;    0,000;-77,50000
 351,35;  -25,000;  629,000;    0,000;-654,00000
 351,37;  -24,000; -591,000;    0,000;567,00000
 351,38;    6,000; -265,000;    0,000;271,00000
 351,40;   10,000; -226,000;    0,000;236,00000
 351,41;    0,500; -369,000;    0,000;369,50000
 351,42;   34,000; -554,000;    0,000;588,00000
 351,44;  -50,500; -369,000;    0,000;318,50000
 351,45;   19,000; -109,000;    0,000;128,00000
 351,47;   33,500;  -93,000;    0,000;126,50000
 351,48;  -10,000; -783,000;    0,000;773,00000
 351,50;   36,500; -521,000;    0,000;557,50000
 351,51;   10,500;  253,000;    0,000;-242,50000
 351,52;    1,000;  226,000;    0,000;-225,00000
 351,54;   11,500; -625,000;    0,000;636,50000
 351,55;    5,500;  149,000;    0,000;-143,50000
 351,57;    7,000;  -49,000;    0,000;56,00000
 351,58;  -28,500; -119,000;    0,000;90,50000
 351,59;   -6,500; -361,000;    0,000;354,50000
 351,61;  -25,000;  268,000;    0,000;-293,00000
 351,62;   -7,500; -514,000;    0,000;506,50000
 351,64;   16,000;  130,000;    0,000;-114,00000
 351,65;    2,500; -474,000;    0,000;476,50000
 351,67;  -61,500;  -78,000;    0,000;16,50000
 351,68;  -45,000; -460,000;    0,000;415,00000
 351,69;  -19,000; -455,000;    0,000;436,00000
 351,71;  -23,000; -341,000;    0,000;318,00000
 351,72;    8,000; -467,000;    0,000;475,00000
 351,74;   -7,000; -407,000;    0,000;400,00000
 351,75;   15,000; -156,000;    0,000;171,00000
 351,76;    4,500; -596,000;    0,000;600,50000
 351,78;  -32,000; -396,000;    0,000;364,00000
 351,79;  -20,500; -262,000;    0,000;241,50000
 351,81;    4,000; -381,000;    0,000;385,00000
 351,82;   12,000; -450,000;    0,000;462,00000
 351,84;   30,500; -476,000;    0,000;506,50000
 351,85;  -18,000;  -16,000;    0,000;-2,00000
 351,86;    8,500;  -73,000;    0,000;81,50000
 351,88;   57,000; -345,000;    0,000;402,00000
 351,89;   -0,500; -411,000;    0,000;410,50000
 351,91;  -54,000;   26,000;    0,000;-80,00000
 351,92;   -1,500; -236,000;    0,000;234,50000
 351,93;   41,000; -725,000;    0,000;766,00000
 351,95;   15,000; -246,000;    0,000;261,00000
 351,96;   30,500;   60,000;    0,000;-29,50000
 351,98;  -29,500;    1,000;    0,000;-30,50000
 351,99;   -6,000; -520,000;    0,000;514,00000
 352,01;    5,000; -650,000;    0,000;655,00000
 352,02;  -33,500; -289,000;    0,000;255,50000
 352,03;  -34,500; -268,000;    0,000;233,50000
 352,05;   11,000; -264,000;    0,000;275,00000
 352,06;  -11,500; -576,000;    0,000;564,50000
 352,08;  -38,500; -339,000;    0,000;300,50000
 352,09;    8,500;  114,000;    0,000;-105,50000
 352,10;  -36,500; -408,000;    0,000;371,50000
 352,12;  -40,000; -282,000;    0,000;242,00000
 352,13;   -7,000; -320,000;    0,000;313,00000
 352,15;    1,500; -153,000;    0,000;154,50000
 352,16;   21,000; -193,000;    0,000;214,00000
 352,17;  -33,000; -520,000;    0,000;487,00000
 352,19;  -67,500; -183,000;    0,000;115,50000
 352,20;  -46,000; -148,000;    0,000;102,00000
 352,22;   11,500; -327,000;    0,000;338,50000
 352,23;  -29,000; -420,000;    0,000;391,00000
 352,24;  -34,500; -582,000;    0,000;547,50000
 352,26;  -59,500;  429,000;    0,000;-488,50000
 352,27;   75,000; -490,000;    0,000;565,00000
 352,29;    8,000;  281,000;    0,000;-273,00000
 352,30;   54,000;  188,000;    0,000;-134,00000
 352,32;   43,000; -125,000;    0,000;168,00000
 352,33;   45,000; -578,000;    0,000;623,00000
 352,34;  -17,000; -387,000;    0,000;370,00000
 352,36;   69,000; -332,000;    0,000;401,00000
 352,37;    7,500;  -92,000;    0,000;99,50000
 352,39;  -16,000; -505,000;    0,000;489,00000
 352,40;    6,000; -489,000;    0,000;495,00000
 352,41;   22,000; -162,000;    0,000;184,00000
 352,43;    1,000;   84,000;    0,000;-83,00000
 352,44;   -3,500; -476,000;    0,000;472,50000
 352,46;   55,500; -330,000;    0,000;385,50000
 352,47;    7,000; -189,000;    0,000;196,00000
 352,48;    9,500;  125,000;    0,000;-115,50000
 352,50;   -6,000; -274,000;    0,000;268,00000
 352,51;   26,500; -440,000;    0,000;466,50000
 352,53;  -38,500; -505,000;    0,000;466,50000
 352,54;    5,000; -330,000;    0,000;335,00000
 352,55;   28,500;  -84,000;    0,000;112,50000
 352,57;   -9,500; -429,000;    0,000;419,50000
 352,58;   -2,000; -288,000;    0,000;286,00000
 352,60;   -1,000; -282,000;    0,000;281,00000
 352,61;    3,500; -171,000;    0,000;174,50000
 352,62;  -33,500; -396,000;    0,000;362,50000
 352,64;   -8,000; -421,000;    0,000;413,00000
 352,65;  -10,500; -188,000;    0,000;177,50000
 352,67;    2,000; -825,000;    0,000;827,00000
 352,68;   39,000; -277,000;    0,000;316,00000
 352,69;  -11,000; -302,000;    0,000;291,00000
 352,71;  -37,500; -106,000;    0,000;68,50000
 352,72;   17,500; -508,000;    0,000;525,50000
 352,74;  -20,500; -596,000;    0,000;575,50000
 352,75;   33,500; -393,000;    0,000;426,50000
 352,76;   -9,000; -191,000;    0,000;182,00000
 352,78;   -2,000; -443,000;    0,000;441,00000
 352,79;  -17,500; -404,000;    0,000;386,50000
 352,81;  -10,500; -330,000;    0,000;319,50000
 352,82;  -31,000;  244,000;    0,000;-275,00000
 352,83;    5,000; -550,000;    0,000;555,00000
 352,85;   24,500;   21,000;    0,000; 3,50000
 352,86;   -5,000; -218,000;    0,000;213,00000
 352,88;  -29,500;  115,000;    0,000;-144,50000
 352,89;   42,000; -324,000;    0,000;366,00000
 352,90;  -25,000; -321,000;    0,000;296,00000
 352,92;  -28,000;  -50,000;    0,000;22,00000
 352,93;  -21,000; -463,000;    0,000;442,00000
 352,94;   25,000; -665,000;    0,000;690,00000
 352,96;  -20,500; -266,000;    0,000;245,50000
 352,97;  -36,500; -619,000;    0,000;582,50000
 352,99;   -3,500; -253,000;    0,000;249,50000
 353,00;  -44,500;  -12,000;    0,000;-32,50000
 353,01;  -14,000; -102,000;    0,000;88,00000
 353,03;    7,500;  299,000;    0,000;-291,50000
 353,04;  -73,000; -369,000;    0,000;296,00000
 353,06;  -18,000; -405,000;    0,000;387,00000
 353,07;   -2,000; -428,000;    0,000;426,00000
 353,08;  -61,500;  -89,000;    0,000;27,50000
 353,10;   12,500; -228,000;    0,000;240,50000
 353,11;   73,500; -317,000;    0,000;390,50000
 353,13;  -10,500; -266,000;    0,000;255,50000
 353,14;   -2,500;   32,000;    0,000;-34,50000
 353,15;   -2,500; -102,000;    0,000;99,50000
 353,17;   18,000; -412,000;    0,000;430,00000
 353,18;  -66,000; -244,000;    0,000;178,00000
 353,20;   45,500; -171,000;    0,000;216,50000
 353,21;   15,500;  -44,000;    0,000;59,50000
 353,22;   20,500; -435,000;    0,000;455,50000
 353,24;  -11,500; -288,000;    0,000;276,50000
 353,25;   35,000;  -48,000;    0,000;83,00000
 353,26;  -35,000; -307,000;    0,000;272,00000
 353,28;  -30,500; -444,000;    0,000;413,50000
 353,29;   17,000; -397,000;    0,000;414,00000
 353,31;   21,000; -224,000;    0,000;245,00000
 353,32;   -9,000;  -44,000;    0,000;35,00000
 353,33;  -19,000; -484,000;    0,000;465,00000
 353,35;   36,000; -310,000;    0,000;346,00000
 353,36;  -28,000; -325,000;    0,000;297,00000
 353,38;  -17,000;  -24,000;    0,000; 7,00000
 353,39;  -15,500; -460,000;    0,000;444,50000
 353,40;  -71,000;  -40,000;    0,000;-31,00000
 353,42;   18,500; -239,000;    0,000;257,50000
 353,43;    6,500;  362,000;    0,000;-355,50000
 353,44;  -13,000; -318,000;    0,000;305,00000
 353,46;    7,500; -170,000;    0,000;177,50000
 353,47;    2,500; -404,000;    0,000;406,50000
 353,49;  -29,000;  125,000;    0,000;-154,00000
 353,50;   13,000; -411,000;    0,000;424,00000
 353,51;   11,000;   37,000;    0,000;-26,00000
 353,53;   11,500;  -57,000;    0,000;68,50000
 353,54;    8,500; -358,000;    0,000;366,50000
 353,56;  -23,500; -262,000;    0,000;238,50000
 353,57;  -57,000; -269,000;    0,000;212,00000
 353,58;  -20,000; -214,000;    0,000;194,00000
 353,60;    0,500;   26,000;    0,000;-25,50000
 353,61;   24,000; -439,000;    0,000;463,00000
 353,62;  -54,000;   81,000;    0,000;-135,00000
 353,64;   48,000; -105,000;    0,000;153,00000
 353,65;  -20,500; -501,000;    0,000;480,50000
 353,67;  -42,000; -367,000;    0,000;325,00000
 353,68;   12,500; -239,000;    0,000;251,50000
 353,69;  -14,500; -244,000;    0,000;229,50000
 353,71;  -21,500; -180,000;    0,000;158,50000
 353,72;    8,500;    7,000;    0,000; 1,50000
 353,73;  -10,500; -333,000;    0,000;322,50000
 353,75;   37,000; -148,000;    0,000;185,00000
 353,76;  -64,500; -252,000;    0,000;187,50000
 353,78;  -11,000; -440,000;    0,000;429,00000
 353,79;   -8,500; -266,000;    0,000;257,50000
 353,80;  -57,500; -171,000;    0,000;113,50000
 353,82;  -19,000; -104,000;    0,000;85,00000
 353,83;   17,500; -694,000;    0,000;711,50000
 353,84;   27,000; -248,000;    0,000;275,00000
 353,86;    8,500; -549,000;    0,000;557,50000
 353,87;   22,000;   59,000;    0,000;-37,00000
 353,89;  -21,500; -282,000;    0,000;260,50000
 353,90;  -39,500;   97,000;    0,000;-136,50000
 353,91;  -19,000; -274,000;    0,000;255,00000
 353,93;  -67,500; -402,000;    0,000;334,50000
 353,94;   41,500; -445,000;    0,000;486,50000
 353,95;    4,000; -467,000;    0,000;471,00000
 353,97;   56,000;   96,000;    0,000;-40,00000
 353,98;   31,000; -299,000;    0,000;330,00000
 354,00;   -2,000; -309,000;    0,000;307,00000
 354,01;   23,000; -414,000;    0,000;437,00000
 354,02;  -19,000; -178,000;    0,000;159,00000
 354,04;  -27,500; -150,000;    0,000;122,50000
 354,05;   10,500; -558,000;    0,000;568,50000
 354,06;  -27,500; -296,000;    0,000;268,50000
 354,08;   -1,500; -377,000;    0,000;375,50000
 354,09;  -19,000; -385,000;    0,000;366,00000
 354,11;  -15,000; -417,000;    0,000;402,00000
 354,12;  -30,500; -247,000;    0,000;216,50000
 354,13;   34,000; -146,000;    0,000;180,00000
 354,15;  -31,000; -194,000;    0,000;163,00000
 354,16;  -23,500;   97,000;    0,000;-120,50000
 354,17;  -49,000;  292,000;    0,000;-341,00000
 354,19;  -21,500; -744,000;    0,000;722,50000
 354,20;  -28,500; -283,000;    0,000;254,50000
 354,21;   51,000; -515,000;    0,000;566,00000
 354,23;   28,500; -179,000;    0,000;207,50000
 354,24;   -4,000; -622,000;    0,000;618,00000
 354,26;   14,500; -150,000;    0,000;164,50000
 354,27;   25,500; -484,000;    0,000;509,50000
 354,28;   32,000; -531,000;    0,000;563,00000
 354,30;  -41,000;   86,000;    0,000;-127,00000
 354,31;  -27,500;  303,000;    0,000;-330,50000
 354,32;  -37,000; -633,000;    0,000;596,00000
 354,34;  -77,000; -302,000;    0,000;225,00000
 354,35;    8,500; -282,000;    0,000;290,50000
 354,37;  -27,000; -161,000;    0,000;134,00000
 354,38;   24,000; -469,000;    0,000;493,00000
 354,39;   -3,000; -544,000;    0,000;541,00000
 354,41;  -11,500; -223,000;    0,000;211,50000
 354,42;  -28,500;  -43,000;    0,000;14,50000
 354,43;  -24,000; -263,000;    0,000;239,00000
 354,45;  -41,500; -278,000;    0,000;236,50000
 354,46;    4,000; -264,000;    0,000;268,00000
 354,47;  -60,500; -353,000;    0,000;292,50000
 354,49;   -1,500;  -48,000;    0,000;46,50000
 354,50;  -45,500; -405,000;    0,000;359,50000
 354,51;   50,000; -281,000;    0,000;331,00000
 354,53;  -32,500; -404,000;    0,000;371,50000
 354,54;   21,500; -541,000;    0,000;562,50000
 354,56;  -21,000; -260,000;    0,000;239,00000
 354,57;    2,000;  117,000;    0,000;-115,00000
 354,58;   30,500; -522,000;    0,000;552,50000
 354,60;  -17,500; -234,000;    0,000;216,50000
 354,61;  -23,500; -262,000;    0,000;238,50000
 354,62;   -9,000;    6,000;    0,000;-15,00000
 354,64;    3,500;  245,000;    0,000;-241,50000
 354,65;    1,000; -223,000;    0,000;224,00000
 354,66;  -41,500;  203,000;    0,000;-244,50000
 354,68;  -10,000;  419,000;    0,000;-429,00000
 354,69;  -29,000; -321,000;    0,000;292,00000
 354,71;   84,500; -426,000;    0,000;510,50000
 354,72;   -2,000; -271,000;    0,000;269,00000
 354,73;   -5,000; -393,000;    0,000;388,00000
 354,75;   39,500;  -28,000;    0,000;67,50000
 354,76;  -43,500; -567,000;    0,000;523,50000
 354,77;   -9,000; -463,000;    0,000;454,00000
 354,79;   46,000; -248,000;    0,000;294,00000
 354,80;   15,000; -138,000;    0,000;153,00000
 354,81;   29,500; -248,000;    0,000;277,50000
 354,83;  -18,500; -223,000;    0,000;204,50000
 354,84;  -11,000; -128,000;    0,000;117,00000
 354,85;   17,500; -280,000;    0,000;297,50000
 354,87;  -38,500; -241,000;    0,000;202,50000
 354,88;   33,500;  -42,000;    0,000;75,50000
 354,90;   14,500; -292,000;    0,000;306,50000
 354,91;   10,000;  224,000;    0,000;-214,00000
 354,92;  -11,500; -450,000;    0,000;438,50000
 354,94;  -37,500; -326,000;    0,000;288,50000
 354,95;  -10,500;  -55,000;    0,000;44,50000
 354,96;   -6,000; -172,000;    0,000;166,00000
 354,98;   -2,500; -286,000;    0,000;283,50000
 354,99;   -6,500; -363,000;    0,000;356,50000
 355,00;  -24,000; -235,000;    0,000;211,00000
 355,02;    3,500; -523,000;    0,000;526,50000
 355,03;  -25,000; -480,000;    0,000;455,00000
 355,04;  -32,500; -201,000;    0,000;168,50000
 355,06;   15,500;   -8,000;    0,000;23,50000
 355,07;   14,500;   -3,000;    0,000;17,50000
 355,08;    8,500; -354,000;    0,000;362,50000
 355,10;  -25,000; -284,000;    0,000;259,00000
 355,11;   -2,500;  105,000;    0,000;-107,50000
 355,12;   -2,000;  328,000;    0,000;-330,00000
 355,14;   37,000; -668,000;    0,000;705,00000
 355,15;  -27,500; -439,000;    0,000;411,50000
 355,17;  -38,000; -298,000;    0,000;260,00000
 355,18;   -1,000;  283,000;    0,000;-284,00000
 355,19;  -21,000; -398,000;    0,000;377,00000
 355,21;   -5,000; -180,000;    0,000;175,00000
 355,22;   -2,000; -530,000;    0,000;528,00000
 355,23;  -15,500; -221,000;    0,000;205,50000
 355,25;  -29,500; -385,000;    0,000;355,50000
 355,26;  -28,000; -129,000;    0,000;101,00000
 355,27;   -9,000; -554,000;    0,000;545,00000
 355,29;  -11,500;   27,000;    0,000;-38,50000
 355,30;   29,000;  243,000;    0,000;-214,00000
 355,31;   40,500; -470,000;    0,000;510,50000
 355,33;   10,500;  357,000;    0,000;-346,50000
 355,34;   -9,000;   17,000;    0,000;-26,00000
 355,35;   -1,000; -407,000;    0,000;406,00000
 355,37;   -7,000;  232,000;    0,000;-239,00000
 355,38;    0,000; -123,000;    0,000;123,00000
 355,39;   10,000;  301,000;    0,000;-291,00000
 355,41;  -22,000; -148,000;    0,000;126,00000
 355,42;  -16,000;   23,000;    0,000;-39,00000
 355,43;  -38,000;  -58,000;    0,000;20,00000
 355,45;   -9,500; -141,000;    0,000;131,50000
 355,46;    3,000; -556,000;    0,000;559,00000
 355,47;   -6,500;  110,000;    0,000;-116,50000
 355,49;  -26,500; -177,000;    0,000;150,50000
 355,50;   -8,500;  823,000;    0,000;-831,50000
 355,52;   16,000; -327,000;    0,000;343,00000
 355,53;   11,000; -304,000;    0,000;315,00000
 355,54;   -7,500; -387,000;    0,000;379,50000
 355,56;   42,500;  100,000;    0,000;-57,50000
 355,57;  -10,500; -227,000;    0,000;216,50000
 355,58;  -50,500; -401,000;    0,000;350,50000
 355,60;   15,000; -284,000;    0,000;299,00000
 355,61;  -27,000;    1,000;    0,000;-28,00000
 355,62;   12,000; -506,000;    0,000;518,00000
 355,64;    2,500; -427,000;    0,000;429,50000
 355,65;   12,500; -303,000;    0,000;315,50000
 355,66;  -11,000;  286,000;    0,000;-297,00000
 355,68;  -13,000; -404,000;    0,000;391,00000
 355,69;  -13,500;   79,000;    0,000;-92,50000
 355,70;  -13,000; -302,000;    0,000;289,00000
 355,72;  -11,500; -283,000;    0,000;271,50000
 355,73;  -15,000; -593,000;    0,000;578,00000
 355,74;   23,000; -274,000;    0,000;297,00000
 355,76;   35,000; -273,000;    0,000;308,00000
 355,77;  -33,000;  -71,000;    0,000;38,00000
 355,78;  -39,000; -436,000;    0,000;397,00000
 355,80;   40,000; -162,000;    0,000;202,00000
 355,81;   -9,500; -279,000;    0,000;269,50000
 355,82;  -32,000; -364,000;    0,000;332,00000
 355,84;  -17,000; -262,000;    0,000;245,00000
 355,85;  -16,000; -302,000;    0,000;286,00000
 355,86;  -18,500; -357,000;    0,000;338,50000
 355,88;    9,500; -223,000;    0,000;232,50000
 355,89;  -16,500; -290,000;    0,000;273,50000
 355,90;    0,000; -197,000;    0,000;197,00000
 355,92;  -51,500; -315,000;    0,000;263,50000
 355,93;   28,000; -196,000;    0,000;224,00000
 355,94;   68,500; -412,000;    0,000;480,50000
 355,96;  -18,500;   81,000;    0,000;-99,50000
 355,97;   51,500; -395,000;    0,000;446,50000
 355,98;   -2,500; -431,000;    0,000;428,50000
 356,00;  -10,000; -450,000;    0,000;440,00000
 356,01;  -46,000; -324,000;    0,000;278,00000
 356,02;   -7,500; -108,000;    0,000;100,50000
 356,04;  -42,500; -215,000;    0,000;172,50000
 356,05;   35,500;   22,000;    0,000;13,50000
 356,06;  -17,500; -255,000;    0,000;237,50000
 356,08;   15,000; -520,000;    0,000;535,00000
 356,09;    1,500; -302,000;    0,000;303,50000
 356,10;   16,500; -680,000;    0,000;696,50000
 356,12;  -24,500;    1,000;    0,000;-25,50000
 356,13;  -27,000; -418,000;    0,000;391,00000
 356,14;  -18,000; -272,000;    0,000;254,00000
 356,16;   36,500; -235,000;    0,000;271,50000
 356,17;  -12,000; -370,000;    0,000;358,00000
 356,18;  -31,500; -334,000;    0,000;302,50000
 356,20;  -41,000;  -85,000;    0,000;44,00000
 356,21;   -2,000;   -8,000;    0,000; 6,00000
 356,22;    7,000; -453,000;    0,000;460,00000
 356,24;   35,500; -265,000;    0,000;300,50000
 356,25;  -33,500; -165,000;    0,000;131,50000
 356,26;  -45,500; -281,000;    0,000;235,50000
 356,28;   -4,500; -412,000;    0,000;407,50000
 356,29;   48,500;  -77,000;    0,000;125,50000
 356,30;   -3,000; -138,000;    0,000;135,00000
 356,31;   -6,000; -435,000;    0,000;429,00000
 356,33;  -53,000; -282,000;    0,000;229,00000
 356,34;  -23,500; -508,000;    0,000;484,50000
 356,35;    3,500; -244,000;    0,000;247,50000
 356,37;    3,500; -379,000;    0,000;382,50000
 356,38;  -31,500; -159,000;    0,000;127,50000
 356,39;  -12,000;   69,000;    0,000;-81,00000
 356,41;  -10,000; -392,000;    0,000;382,00000
 356,42;   10,500; -234,000;    0,000;244,50000
 356,43;  -20,000;   57,000;    0,000;-77,00000
 356,45;  -37,000; -612,000;    0,000;575,00000
 356,46;    9,500; -179,000;    0,000;188,50000
 356,47;   11,500; -428,000;    0,000;439,50000
 356,49;  -19,000; -275,000;    0,000;256,00000
 356,50;    0,000;   64,000;    0,000;-64,00000
 356,51;  -39,000; -252,000;    0,000;213,00000
 356,53;   39,500; -520,000;    0,000;559,50000
 356,54;  -17,000; -178,000;    0,000;161,00000
 356,55;    8,500; -552,000;    0,000;560,50000
 356,57;  -68,500;  -28,000;    0,000;-40,50000
 356,58;   55,000;  460,000;    0,000;-405,00000
 356,59;   65,000; -318,000;    0,000;383,00000
 356,61;   -1,500; -301,000;    0,000;299,50000
 356,62;  -23,000; -470,000;    0,000;447,00000
 356,63;    0,500; -584,000;    0,000;584,50000
 356,65;  -17,000; -122,000;    0,000;105,00000
 356,66;   -2,500; -175,000;    0,000;172,50000
 356,67;   -9,500; -272,000;    0,000;262,50000
 356,68;   24,500; -597,000;    0,000;621,50000
 356,70;  -31,000;   14,000;    0,000;-45,00000
 356,71;    4,000; -285,000;    0,000;289,00000
 356,72;  -30,500; -165,000;    0,000;134,50000
 356,74;   45,000; -434,000;    0,000;479,00000
 356,75;  -34,500;  -46,000;    0,000;11,50000
 356,76;   22,500;  -39,000;    0,000;61,50000
 356,78;   35,500;  -56,000;    0,000;91,50000
 356,79;  -27,500; -659,000;    0,000;631,50000
 356,80;  -56,000; -279,000;    0,000;223,00000
 356,82;  -32,500;  -87,000;    0,000;54,50000
 356,83;    4,500;  -13,000;    0,000;17,50000
 356,84;  -61,500; -482,000;    0,000;420,50000
 356,86;  -18,500; -427,000;    0,000;408,50000
 356,87;  -11,000; -288,000;    0,000;277,00000
 356,88;  -21,000;   71,000;    0,000;-92,00000
 356,89;   -4,000; -355,000;    0,000;351,00000
 356,91;    5,500; -549,000;    0,000;554,50000
 356,92;   22,500; -460,000;    0,000;482,50000
 356,93;   23,000;  546,000;    0,000;-523,00000
 356,95;  -20,500; -743,000;    0,000;722,50000
 356,96;  -15,500;  269,000;    0,000;-284,50000
 356,97;  -25,500;  379,000;    0,000;-404,50000
 356,99;   10,000; -272,000;    0,000;282,00000
 357,00;   32,500; -279,000;    0,000;311,50000
 357,01;   16,500; -405,000;    0,000;421,50000
 357,03;  -15,000; -242,000;    0,000;227,00000
 357,04;  -35,000; -194,000;    0,000;159,00000
 357,05;    0,000; -306,000;    0,000;306,00000
 357,07;    6,000;  151,000;    0,000;-145,00000
 357,08;   18,000; -307,000;    0,000;325,00000
 357,09;   14,000; -189,000;    0,000;203,00000
 357,10;    7,000; -109,000;    0,000;116,00000
 357,12;   -2,500; -299,000;    0,000;296,50000
 357,13;  -16,500; -501,000;    0,000;484,50000
 357,14;  -40,500;  -41,000;    0,000; 0,50000
 357,16;  -32,500; -709,000;    0,000;676,50000
 357,17;  -19,000; -384,000;    0,000;365,00000
 357,18;   35,500; -612,000;    0,000;647,50000
 357,20;  -39,000; -238,000;    0,000;199,00000
 357,21;   -9,500;  -89,000;    0,000;79,50000
 357,22;   -9,500; -476,000;    0,000;466,50000
 357,24;   42,000; -602,000;    0,000;644,00000
 357,25;  -35,500;  -72,000;    0,000;36,50000
 357,26;  -17,500; -109,000;    0,000;91,50000
 357,27;  -49,000;  -82,000;    0,000;33,00000
 357,29;   38,000;  176,000;    0,000;-138,00000
 357,30;   -7,500; -321,000;    0,000;313,50000
 357,31;  -16,000; -332,000;    0,000;316,00000
 357,33;  -37,000; -532,000;    0,000;495,00000
 357,34;   66,500; -131,000;    0,000;197,50000
 357,35;  -30,500; -404,000;    0,000;373,50000
 357,37;   -5,000; -195,000;    0,000;190,00000
 357,38;  -17,500; -504,000;    0,000;486,50000
 357,39;   37,000; -340,000;    0,000;377,00000
 357,40;  -39,000; -113,000;    0,000;74,00000
 357,42;   34,500; -272,000;    0,000;306,50000
 357,43;  -55,000; -421,000;    0,000;366,00000
 357,44;   34,000; -346,000;    0,000;380,00000
 357,46;   -2,000;  -80,000;    0,000;78,00000
 357,47;  -30,000; -133,000;    0,000;103,00000
 357,48;   -6,000; -286,000;    0,000;280,00000
 357,50;    2,500; -459,000;    0,000;461,50000
 357,51;  -18,500;  -31,000;    0,000;12,50000
 357,52;  -18,000; -466,000;    0,000;448,00000
 357,53;  -15,500; -480,000;    0,000;464,50000
 357,55;   58,000; -163,000;    0,000;221,00000
 357,56;   34,500; -139,000;    0,000;173,50000
 357,57;   42,500;   14,000;    0,000;28,50000
 357,59;   -9,500;  123,000;    0,000;-132,50000
 357,60;   22,000; -132,000;    0,000;154,00000
 357,61;  -28,500; -259,000;    0,000;230,50000
 357,63;  -20,000; -334,000;    0,000;314,00000
 357,64;  -41,000; -375,000;    0,000;334,00000
 357,65;   -8,000; -389,000;    0,000;381,00000
 357,66;  -43,500; -418,000;    0,000;374,50000
 357,68;   54,500; -398,000;    0,000;452,50000
 357,69;  -49,500; -291,000;    0,000;241,50000
 357,70;  -30,000; -494,000;    0,000;464,00000
 357,72;    3,500; -530,000;    0,000;533,50000
 357,73;  -11,000; -747,000;    0,000;736,00000
 357,74;  -34,000; -315,000;    0,000;281,00000
 357,75;   56,000; -216,000;    0,000;272,00000
 357,77;    9,500; -311,000;    0,000;320,50000
 357,78;   21,500; -713,000;    0,000;734,50000
 357,79;  -29,000; -279,000;    0,000;250,00000
 357,81;  -27,000;   42,000;    0,000;-69,00000
 357,82;  -78,500; -178,000;    0,000;99,50000
 357,83;    9,500;   12,000;    0,000;-2,50000
 357,85;  -29,000;  150,000;    0,000;-179,00000
 357,86;   -6,000; -552,000;    0,000;546,00000
 357,87;  -15,000;  -15,000;    0,000; 0,00000
 357,88;  -16,500; -587,000;    0,000;570,50000
 357,90;  -20,500; -122,000;    0,000;101,50000
 357,91;   34,500;   25,000;    0,000; 9,50000
 357,92;  -22,500; -416,000;    0,000;393,50000
 357,94;  -13,500; -386,000;    0,000;372,50000
 357,95;  -34,000;  201,000;    0,000;-235,00000
 357,96;   22,500;  -81,000;    0,000;103,50000
 357,97;  -21,000;  161,000;    0,000;-182,00000
 357,99;  -29,500; -258,000;    0,000;228,50000
 358,00;   21,500;   25,000;    0,000;-3,50000
 358,01;  -16,500; -704,000;    0,000;687,50000
 358,03;  -30,500; -466,000;    0,000;435,50000
 358,04;    2,500;   72,000;    0,000;-69,50000
 358,05;   26,000; -349,000;    0,000;375,00000
 358,06;   -1,500;  -62,000;    0,000;60,50000
 358,08;  -24,500;  -32,000;    0,000; 7,50000
 358,09;  -20,500; -369,000;    0,000;348,50000
 358,10;  -38,500;  -94,000;    0,000;55,50000
 358,12;   35,500; -167,000;    0,000;202,50000
 358,13;  -14,500; -171,000;    0,000;156,50000
 358,14;  -17,500; -188,000;    0,000;170,50000
 358,15;   24,000; -112,000;    0,000;136,00000
 358,17;   17,500; -323,000;    0,000;340,50000
 358,18;   -3,000; -197,000;    0,000;194,00000
 358,19;    8,500; -672,000;    0,000;680,50000
 358,21;   -8,500; -126,000;    0,000;117,50000
 358,22;   30,000; -330,000;    0,000;360,00000
 358,23;  -48,000; -145,000;    0,000;97,00000
 358,24;   46,000; -299,000;    0,000;345,00000
 358,26;  -43,000;   94,000;    0,000;-137,00000
 358,27;   11,500; -105,000;    0,000;116,50000
 358,28;  -41,500; -267,000;    0,000;225,50000
 358,30;   -4,500;   37,000;    0,000;-41,50000
 358,31;  -62,500; -295,000;    0,000;232,50000
 358,32;  -16,000;   61,000;    0,000;-77,00000
 358,33;   17,000;  -42,000;    0,000;59,00000
 358,35;   18,000; -406,000;    0,000;424,00000
 358,36;   -7,500; -163,000;    0,000;155,50000
 358,37;   14,500; -404,000;    0,000;418,50000
 358,39;   -3,500;  -43,000;    0,000;39,50000
 358,40;  -27,000; -309,000;    0,000;282,00000
 358,41;   19,500; -207,000;    0,000;226,50000
 358,42;    2,000;   60,000;    0,000;-58,00000
 358,44;   -5,000; -242,000;    0,000;237,00000
 358,45;  -17,000; -208,000;    0,000;191,00000
 358,46;  -25,000;  -86,000;    0,000;61,00000
 358,48;   45,500; -450,000;    0,000;495,50000
 358,49;    7,500;  144,000;    0,000;-136,50000
 358,50;    3,000; -135,000;    0,000;138,00000
 358,51;  -28,000;  -78,000;    0,000;50,00000
 358,53;    7,500; -495,000;    0,000;502,50000
 358,54;  -32,500; -335,000;    0,000;302,50000
 358,55;   -9,500; -420,000;    0,000;410,50000
 358,56;  -47,000; -465,000;    0,000;418,00000
 358,58;   33,500;   33,000;    0,000; 0,50000
 358,59;  -42,500;   33,000;    0,000;-75,50000
 358,60;   22,500; -380,000;    0,000;402,50000
 358,62;  -30,000; -364,000;    0,000;334,00000
 358,63;   38,500; -309,000;    0,000;347,50000
 358,64;  -47,000; -237,000;    0,000;190,00000
 358,65;   16,500; -232,000;    0,000;248,50000
 358,67;   28,000; -166,000;    0,000;194,00000
 358,68;   15,500; -678,000;    0,000;693,50000
 358,69;   33,500; -244,000;    0,000;277,50000
 358,70;   32,500; -407,000;    0,000;439,50000
 358,72;  -23,500; -262,000;    0,000;238,50000
 358,73;  -35,500; -115,000;    0,000;79,50000
 358,74;  -21,500; -265,000;    0,000;243,50000
 358,76;   31,500; -218,000;    0,000;249,50000
 358,77;  -12,000; -239,000;    0,000;227,00000
 358,78;  -21,000; -575,000;    0,000;554,00000
 358,79;  -67,000;  273,000;    0,000;-340,00000
 358,81;   52,000; -365,000;    0,000;417,00000
 358,82;  -11,000; -217,000;    0,000;206,00000
 358,83;   19,500; -324,000;    0,000;343,50000
 358,84;   26,000; -315,000;    0,000;341,00000
 358,86;  -31,000;   24,000;    0,000;-55,00000
 358,87;   17,500; -356,000;    0,000;373,50000
 358,88;  -15,500;  -85,000;    0,000;69,50000
 358,90;   25,000; -210,000;    0,000;235,00000
 358,91;   10,000; -162,000;    0,000;172,00000
 358,92;  -37,000;  202,000;    0,000;-239,00000
 358,93;  -28,500; -186,000;    0,000;157,50000
 358,95;  -38,000; -102,000;    0,000;64,00000
 358,96;    7,500; -227,000;    0,000;234,50000
 358,97;   -1,500;   57,000;    0,000;-58,50000
 358,98;    9,500; -115,000;    0,000;124,50000
 359,00;   23,500;  469,000;    0,000;-445,50000
 359,01;   -3,000;   51,000;    0,000;-54,00000
 359,02;  -61,500; -327,000;    0,000;265,50000
 359,03;   18,000;  106,000;    0,000;-88,00000
 359,05;   28,000; -241,000;    0,000;269,00000
 359,06;  -46,500; -298,000;    0,000;251,50000
 359,07;    6,000; -246,000;    0,000;252,00000
 359,09;   50,000; -526,000;    0,000;576,00000
 359,10;  -16,500;  273,000;    0,000;-289,50000
 359,11;   59,500;  321,000;    0,000;-261,50000
 359,12;  -50,500;  -75,000;    0,000;24,50000
 359,14;  -27,000; -465,000;    0,000;438,00000
 359,15;   -6,500; -155,000;    0,000;148,50000
 359,16;   39,500; -390,000;    0,000;429,50000
 359,17;  -28,500; -237,000;    0,000;208,50000
 359,19;   40,500; -120,000;    0,000;160,50000
 359,20;   15,000;  130,000;    0,000;-115,00000
 359,21;   55,500; -226,000;    0,000;281,50000
 359,22;  -32,500;   61,000;    0,000;-93,50000
 359,24;   17,500; -271,000;    0,000;288,50000
 359,25;   -8,500;   82,000;    0,000;-90,50000
 359,26;   14,500; -203,000;    0,000;217,50000
 359,27;   38,500;   47,000;    0,000;-8,50000
 359,29;  -21,500;   34,000;    0,000;-55,50000
 359,30;   26,500; -157,000;    0,000;183,50000
 359,31;    8,500; -285,000;    0,000;293,50000
 359,33;   71,500; -181,000;    0,000;252,50000
 359,34;   21,000;  107,000;    0,000;-86,00000
 359,35;  -20,500;  221,000;    0,000;-241,50000
 359,36;  -26,000;  245,000;    0,000;-271,00000
 359,38;  -25,500;  -86,000;    0,000;60,50000
 359,39;  -43,500; -295,000;    0,000;251,50000
 359,40;   -9,000; -162,000;    0,000;153,00000
 359,41;   35,500; -278,000;    0,000;313,50000
 359,43;  -19,500;   35,000;    0,000;-54,50000
 359,44;  -18,000;   99,000;    0,000;-117,00000
 359,45;    5,000;  355,000;    0,000;-350,00000
 359,46;   -4,000; -207,000;    0,000;203,00000
 359,48;   -8,000; -183,000;    0,000;175,00000
 359,49;   26,000;   -7,000;    0,000;33,00000
 359,50;  -23,500;  184,000;    0,000;-207,50000
 359,51;    1,500;   57,000;    0,000;-55,50000
 359,53;   38,500;  345,000;    0,000;-306,50000
 359,54;  -14,000;   28,000;    0,000;-42,00000
 359,55;  -26,500;  121,000;    0,000;-147,50000
 359,56;  -40,000; -498,000;    0,000;458,00000
 359,58;   13,500;  213,000;    0,000;-199,50000
 359,59;   19,000; -180,000;    0,000;199,00000
 359,60;    0,500;  232,000;    0,000;-231,50000
 359,61;   24,500; -148,000;    0,000;172,50000
 359,63;  -35,500;  225,000;    0,000;-260,50000
 359,64;   -2,500; -138,000;    0,000;135,50000
 359,65;  -18,000;  710,000;    0,000;-728,00000
 359,66;    9,000;  144,000;    0,000;-135,00000
 359,68;  -40,500; -256,000;    0,000;215,50000
 359,69;   34,000; -246,000;    0,000;280,00000
 359,70;  -57,500;  501,000;    0,000;-558,50000
 359,71;   49,000;  -21,000;    0,000;70,00000
 359,73;    4,000;  364,000;    0,000;-360,00000
 359,74;  -24,500;  486,000;    0,000;-510,50000
 359,75; -114,500;  469,000;    0,000;-583,50000
 359,76;    0,000;   62,000;    0,000;-62,00000
 359,78;  -47,000;  918,000;    0,000;-965,00000
 359,79;   12,500;  460,000;    0,000;-447,50000
 359,80;  -29,000;   87,000;    0,000;-116,00000
 359,81;   12,500; -226,000;    0,000;238,50000
 359,83;  -21,500;  515,000;    0,000;-536,50000
 359,84;    7,500; -145,000;    0,000;152,50000
 359,85;    1,000;  292,000;    0,000;-291,00000
 359,86;    7,500;  285,000;    0,000;-277,50000
 359,88;   -9,000;  427,000;    0,000;-436,00000
 359,89;  -20,000;  329,000;    0,000;-349,00000
 359,90;  -21,000; 1208,000;    0,000;-1229,00000
 359,91;   41,000;  244,000;    0,000;-203,00000
 359,93;   -2,000;  495,000;    0,000;-497,00000
 359,94;  -25,500; -227,000;    0,000;201,50000
 359,95;   20,500;  479,000;    0,000;-458,50000
 359,96;   -5,000; -134,000;    0,000;129,00000
 359,98;   26,000;  132,000;    0,000;-106,00000
 359,99;  -19,500;  313,000;    0,000;-332,50000
 360,00;  -25,500;  815,000;    0,000;-840,50000
 360,01;    4,000;  271,000;    0,000;-267,00000
 360,03;   -2,000;  297,000;    0,000;-299,00000
 360,04;   42,000;  412,000;    0,000;-370,00000
 360,05;  -74,000;  485,000;    0,000;-559,00000
 360,06;   15,000;  -51,000;    0,000;66,00000
 360,08;  -53,500; 1788,000;    0,000;-1841,50000
 360,09;   -3,500;  -90,000;    0,000;86,50000
 360,10;  -23,500;  162,000;    0,000;-185,50000
 360,11;   31,500;  444,000;    0,000;-412,50000
 360,13;   17,000;  135,000;    0,000;-118,00000
 360,14;  -58,000;  -74,000;    0,000;16,00000
 360,15;   -6,000;  543,000;    0,000;-549,00000
 360,16;   83,000;  271,000;    0,000;-188,00000
 360,17;  -18,000;  430,000;    0,000;-448,00000
 360,19;    9,000; -117,000;    0,000;126,00000
 360,20;  -23,500;  389,000;    0,000;-412,50000
 360,21;    6,500;   31,000;    0,000;-24,50000
 360,22;   16,000;  726,000;    0,000;-710,00000
 360,24;   23,000;  269,000;    0,000;-246,00000
 360,25;  -36,000;   38,000;    0,000;-74,00000
 360,26;   34,000;   -2,000;    0,000;36,00000
 360,27;   -5,000;  656,000;    0,000;-661,00000
 360,29;   -1,000; -327,000;    0,000;326,00000
 360,30;   -8,000;  431,000;    0,000;-439,00000
 360,31;   30,500;  167,000;    0,000;-136,50000
 360,32;    6,500;  117,000;    0,000;-110,50000
 360,34;   -9,000; -160,000;    0,000;151,00000
 360,35;  -40,000;  233,000;    0,000;-273,00000
 360,36;   63,500;  207,000;    0,000;-143,50000
 360,37;  -20,000;  436,000;    0,000;-456,00000
 360,39;    4,000;  -26,000;    0,000;30,00000
 360,40;   -3,000;   20,000;    0,000;-23,00000
 360,41;   13,500;  -90,000;    0,000;103,50000
 360,42;  -35,000;  -10,000;    0,000;-25,00000
 360,43;   44,000;  184,000;    0,000;-140,00000
 360,45;  -50,500;  217,000;    0,000;-267,50000
 360,46;  -29,000;   60,000;    0,000;-89,00000
 360,47;  -12,000;   57,000;    0,000;-69,00000
 360,48;  -10,500;  -61,000;    0,000;50,50000
 360,50;  -11,500;  -14,000;    0,000; 2,50000
 360,51;   59,500;  260,000;    0,000;-200,50000
 360,52;   -6,000;  618,000;    0,000;-624,00000
 360,53;  -33,000; -102,000;    0,000;69,00000
 360,55;  -13,500;  874,000;    0,000;-887,50000
 360,56;   51,000;   97,000;    0,000;-46,00000
 360,57;  -15,500;  312,000;    0,000;-327,50000
 360,58;   18,500;  -15,000;    0,000;33,50000
 360,59;  -21,000;  407,000;    0,000;-428,00000
 360,61;  -15,000;  339,000;    0,000;-354,00000
 360,62;  -42,000;  609,000;    0,000;-651,00000
 360,63;   14,000;  102,000;    0,000;-88,00000
 360,64;   16,500;  769,000;    0,000;-752,50000
 360,66;  -16,000;  711,000;    0,000;-727,00000
 360,67;  -52,000;  384,000;    0,000;-436,00000
 360,68;    8,500;  384,000;    0,000;-375,50000
 360,69;  -27,500;  521,000;    0,000;-548,50000
 360,71;   43,000;   18,000;    0,000;25,00000
 360,72;  -22,500; 1326,000;    0,000;-1348,50000
 360,73;   49,000; -248,000;    0,000;297,00000
 360,74;   21,500;  768,000;    0,000;-746,50000
 360,75;    6,000;  498,000;    0,000;-492,00000
 360,77;   75,000;  775,000;    0,000;-700,00000
 360,78;    4,500;  177,000;    0,000;-172,50000
 360,79;   31,000; 1026,000;    0,000;-995,00000
 360,80;  177,500;  490,000;    0,000;-312,50000
 360,82;  155,500;  959,000;    0,000;-803,50000
 360,83;  257,000; 1065,000;    0,000;-808,00000
 360,84;  369,000; 1451,000;    0,000;-1082,00000
 360,85;  557,000;  213,000;    0,000;344,00000
 360,86;  656,500;  753,000;    0,000;-96,50000
 360,88;  771,500;  169,000;    0,000;602,50000
 360,89;  810,000;  767,000;    0,000;43,00000
 360,90;  889,000;  601,000;    0,000;288,00000
 360,91;  901,000; 1233,000;    0,000;-332,00000
 360,93; 1126,000;  630,000;    0,000;496,00000
 360,94; 1671,500; 1143,000;    0,000;528,50000
 360,95; 2487,000;  773,000;    0,000;1714,00000
 360,96; 3722,000; 1121,000;    0,000;2601,00000
 360,97; 4846,000; 1412,000;    0,000;3434,00000
 360,99; 5106,500; 1635,000;    0,000;3471,50000
 361,00; 4012,500;  825,000;    0,000;3187,50000
 361,01; 2588,000;  647,000;    0,000;1941,00000
 361,02; 1516,500;  942,000;    0,000;574,50000
 361,04;  930,500;  862,000;    0,000;68,50000
 361,05;  627,000;  519,000;    0,000;108,00000
 361,06;  475,500; 2237,000;    0,000;-1761,50000
 361,07;  405,500;  321,000;    0,000;84,50000
 361,08;  497,500;  945,000;    0,000;-447,50000
 361,10;  478,000; 1065,000;    0,000;-587,00000
 361,11;  496,000;  900,000;    0,000;-404,00000
 361,12;  497,500; 1150,000;    0,000;-652,50000
 361,13;  506,000;  715,000;    0,000;-209,00000
 361,15;  509,500;  946,000;    0,000;-436,50000
 361,16;  600,500; 1689,000;    0,000;-1088,50000
 361,17;  684,500;  612,000;    0,000;72,50000
 361,18; 1164,000;  555,000;    0,000;609,00000
 361,19; 1737,000;  909,000;    0,000;828,00000
 361,21; 2594,000; 1493,000;    0,000;1101,00000
 361,22; 2820,000;  620,000;    0,000;2200,00000
 361,23; 2656,500;  818,000;    0,000;1838,50000
 361,24; 1656,500; 1879,000;    0,000;-222,50000
 361,25; 1045,000;  857,000;    0,000;188,00000
 361,27;  615,500; 1200,000;    0,000;-584,50000
 361,28;  358,500;  466,000;    0,000;-107,50000
 361,29;  219,000;  469,000;    0,000;-250,00000
 361,30;  199,500;  620,000;    0,000;-420,50000
 361,32;  139,000;  688,000;    0,000;-549,00000
 361,33;  128,500;  846,000;    0,000;-717,50000
 361,34;  202,000;  497,000;    0,000;-295,00000
 361,35;  197,000; 1001,000;    0,000;-804,00000
 361,36;  250,500; 1048,000;    0,000;-797,50000
 361,38;  317,000; 1190,000;    0,000;-873,00000
 361,39;  317,000;  371,000;    0,000;-54,00000
 361,40;  147,500;  693,000;    0,000;-545,50000
 361,41;  116,500;  964,000;    0,000;-847,50000
 361,42;   72,500; 1010,000;    0,000;-937,50000
 361,44;   53,500;  783,000;    0,000;-729,50000
 361,45;   15,000;  856,000;    0,000;-841,00000
 361,46;   35,500;  560,000;    0,000;-524,50000
 361,47;   30,000;  600,000;    0,000;-570,00000
 361,49;    4,000;  647,000;    0,000;-643,00000
 361,50;   21,000;  548,000;    0,000;-527,00000
 361,51;   39,500;  442,000;    0,000;-402,50000
 361,52;   19,500;  388,000;    0,000;-368,50000
 361,53;   -5,000;  876,000;    0,000;-881,00000
 361,55;  -46,500;  314,000;    0,000;-360,50000
 361,56;   62,000;  676,000;    0,000;-614,00000
 361,57;   12,500; 1045,000;    0,000;-1032,50000
 361,58;   42,500;  388,000;    0,000;-345,50000
 361,59;   57,000; 1040,000;    0,000;-983,00000
 361,61;   63,500;  463,000;    0,000;-399,50000
 361,62;   45,500;  576,000;    0,000;-530,50000
 361,63;   29,000;  188,000;    0,000;-159,00000
 361,64;   -3,500;   64,000;    0,000;-67,50000
 361,65;   43,000;  482,000;    0,000;-439,00000
 361,67;   20,500;  508,000;    0,000;-487,50000
 361,68;  -17,500;  420,000;    0,000;-437,50000
 361,69;   15,000; 1526,000;    0,000;-1511,00000
 361,70;  -21,000;  230,000;    0,000;-251,00000
 361,71;  -33,000;  609,000;    0,000;-642,00000
 361,73;  -27,000;  648,000;    0,000;-675,00000
 361,74;  -15,000;  792,000;    0,000;-807,00000
 361,75;   44,000;  441,000;    0,000;-397,00000
 361,76;  -38,000;  285,000;    0,000;-323,00000
 361,77;  -17,500;  440,000;    0,000;-457,50000
 361,79;   24,000;  804,000;    0,000;-780,00000
 361,80;   24,000;   86,000;    0,000;-62,00000
 361,81;   38,500;  717,000;    0,000;-678,50000
 361,82;   10,500;  142,000;    0,000;-131,50000
 361,83;  -18,000;  556,000;    0,000;-574,00000
 361,85;   44,000;  512,000;    0,000;-468,00000
 361,86;  -20,500;  645,000;    0,000;-665,50000
 361,87;  -33,000;  218,000;    0,000;-251,00000
 361,88;  -25,500;  725,000;    0,000;-750,50000
 361,89;  -34,000;  298,000;    0,000;-332,00000
 361,91;  -30,500;  548,000;    0,000;-578,50000
 361,92;    6,500;  644,000;    0,000;-637,50000
 361,93;  -22,000;  465,000;    0,000;-487,00000
 361,94;   48,000;  -10,000;    0,000;58,00000
 361,95;   -7,500;  285,000;    0,000;-292,50000
 361,97;   85,500; -172,000;    0,000;257,50000
 361,98;  -31,000;  772,000;    0,000;-803,00000
 361,99;   30,000;  548,000;    0,000;-518,00000
 362,00;   22,500;  519,000;    0,000;-496,50000
 362,01;   50,000;   48,000;    0,000; 2,00000
 362,03;  -20,500;  604,000;    0,000;-624,50000
 362,04;   22,500;  314,000;    0,000;-291,50000
 362,05;  -30,500;  958,000;    0,000;-988,50000
 362,06;    0,000; -129,000;    0,000;129,00000
 362,07;  -23,500;  444,000;    0,000;-467,50000
 362,09;   43,500; -128,000;    0,000;171,50000
 362,10;  -22,500;  283,000;    0,000;-305,50000
 362,11;   -8,500;  429,000;    0,000;-437,50000
 362,12;   18,500;  242,000;    0,000;-223,50000
 362,13;  -22,000;  228,000;    0,000;-250,00000
 362,15;   -9,000;  412,000;    0,000;-421,00000
 362,16;   -3,500;  107,000;    0,000;-110,50000
 362,17;  -19,000;  383,000;    0,000;-402,00000
 362,18;   -8,000; -195,000;    0,000;187,00000
 362,19;  -46,500;  798,000;    0,000;-844,50000
 362,21;  -20,500; -444,000;    0,000;423,50000
 362,22;   22,500;  344,000;    0,000;-321,50000
 362,23;  -41,500;  -47,000;    0,000; 5,50000
 362,24;  -49,500;  759,000;    0,000;-808,50000
 362,25;  -22,500;  -15,000;    0,000;-7,50000
 362,27;   15,500; 1094,000;    0,000;-1078,50000
 362,28;  -14,000;  662,000;    0,000;-676,00000
 362,29;   42,000;  533,000;    0,000;-491,00000
 362,30;   43,000;  737,000;    0,000;-694,00000
 362,31;   -6,000;  283,000;    0,000;-289,00000
 362,32;  -61,500;   -7,000;    0,000;-54,50000
 362,34;   29,500;  275,000;    0,000;-245,50000
 362,35;  -25,000;  140,000;    0,000;-165,00000
 362,36;   -5,000;  543,000;    0,000;-548,00000
 362,37;   22,000;  107,000;    0,000;-85,00000
 362,38;    4,500;  -65,000;    0,000;69,50000
 362,40;   30,500;  499,000;    0,000;-468,50000
 362,41;  -14,000;  182,000;    0,000;-196,00000
 362,42;   37,000;  243,000;    0,000;-206,00000
 362,43;   18,500;  326,000;    0,000;-307,50000
 362,44;  -26,000;   99,000;    0,000;-125,00000
 362,46;    8,500; -130,000;    0,000;138,50000
 362,47;   21,500;  319,000;    0,000;-297,50000
 362,48;  -41,000;  254,000;    0,000;-295,00000
 362,49;  -29,000;   25,000;    0,000;-54,00000
 362,50;  -46,500;  438,000;    0,000;-484,50000
 362,51;    4,000;   59,000;    0,000;-55,00000
 362,53;   35,500;  196,000;    0,000;-160,50000
 362,54;  -17,500;  321,000;    0,000;-338,50000
 362,55;  -41,000;  343,000;    0,000;-384,00000
 362,56;  -16,500;  465,000;    0,000;-481,50000
 362,57;  -12,500;  460,000;    0,000;-472,50000
 362,59;   51,500;  640,000;    0,000;-588,50000
 362,60;   31,000;  293,000;    0,000;-262,00000
 362,61;   26,000;  615,000;    0,000;-589,00000
 362,62;   33,000;  457,000;    0,000;-424,00000
 362,63;   59,500;  -68,000;    0,000;127,50000
 362,65;  -35,000; -110,000;    0,000;75,00000
 362,66;   10,500;  208,000;    0,000;-197,50000
 362,67;   30,500; -198,000;    0,000;228,50000
 362,68;   35,500;  232,000;    0,000;-196,50000
 362,69;    7,500;  426,000;    0,000;-418,50000
 362,70;   18,000; -349,000;    0,000;367,00000
 362,72;  -44,000; -134,000;    0,000;90,00000
 362,73;    3,000;   31,000;    0,000;-28,00000
 362,74;  -71,500; -102,000;    0,000;30,50000
 362,75;   28,500; -267,000;    0,000;295,50000
 362,76;   -7,500; -102,000;    0,000;94,50000
 362,77;   14,000; -181,000;    0,000;195,00000
 362,79;    5,000;   -2,000;    0,000; 7,00000
 362,80;   19,000;  641,000;    0,000;-622,00000
 362,81;   -0,500; -353,000;    0,000;352,50000
 362,82;   31,000;  479,000;    0,000;-448,00000
 362,83;    1,500;  206,000;    0,000;-204,50000
 362,85;   13,500; -381,000;    0,000;394,50000
 362,86;  -20,000;   71,000;    0,000;-91,00000
 362,87;   24,500; -131,000;    0,000;155,50000
 362,88;    4,000;  424,000;    0,000;-420,00000
 362,89;    3,500;  -39,000;    0,000;42,50000
 362,90;   33,500;  198,000;    0,000;-164,50000
 362,92;  -15,500;  -15,000;    0,000;-0,50000
 362,93;  -38,500; -217,000;    0,000;178,50000
 362,94;   -6,500;  -24,000;    0,000;17,50000
 362,95;  -46,500; -353,000;    0,000;306,50000
 362,96;   -7,500;  399,000;    0,000;-406,50000
 362,97;   11,000;   87,000;    0,000;-76,00000
 362,99;  -42,500; -557,000;    0,000;514,50000
 363,00;  -56,000; -294,000;    0,000;238,00000
 363,01;   31,500; -283,000;    0,000;314,50000
 363,02;  -20,000; -194,000;    0,000;174,00000
 363,03;   35,500; -413,000;    0,000;448,50000
 363,05;  -31,000;   28,000;    0,000;-59,00000
 363,06;  -30,500;  153,000;    0,000;-183,50000
 363,07;  -15,000;  359,000;    0,000;-374,00000
 363,08;   23,000; -445,000;    0,000;468,00000
 363,09;  -39,000;  -84,000;    0,000;45,00000
 363,10;   38,000; -328,000;    0,000;366,00000
 363,12;   -4,500; -329,000;    0,000;324,50000
 363,13;    8,000; -331,000;    0,000;339,00000
 363,14;  -25,000; -456,000;    0,000;431,00000
 363,15;   20,500; -366,000;    0,000;386,50000
 363,16;   62,500; -352,000;    0,000;414,50000
 363,17;  -58,500; -605,000;    0,000;546,50000
 363,19;  -43,500; -379,000;    0,000;335,50000
 363,20;   -3,000; -192,000;    0,000;189,00000
 363,21;    3,500;  149,000;    0,000;-145,50000
 363,22;   11,000; -132,000;    0,000;143,00000
 363,23;   -8,000; -266,000;    0,000;258,00000
 363,24;   11,000; -184,000;    0,000;195,00000
 363,26;  -10,000;  234,000;    0,000;-244,00000
 363,27;   -4,500;  258,000;    0,000;-262,50000
 363,28;  -25,000;  -50,000;    0,000;25,00000
 363,29;    8,500; -285,000;    0,000;293,50000
 363,30;    0,000;  -62,000;    0,000;62,00000
 363,31;  -15,500; -271,000;    0,000;255,50000
 363,33;   -6,000;  211,000;    0,000;-217,00000
 363,34;    0,000; -219,000;    0,000;219,00000
 363,35;  -22,000; -358,000;    0,000;336,00000
 363,36;   13,000;  103,000;    0,000;-90,00000
 363,37;  -16,000; -253,000;    0,000;237,00000
 363,38;   -4,000;  -81,000;    0,000;77,00000
 363,40;   53,500; -107,000;    0,000;160,50000
 363,41;   -6,000;  -27,000;    0,000;21,00000
 363,42;   19,000;  -26,000;    0,000;45,00000
 363,43;  -36,500; -595,000;    0,000;558,50000
 363,44;  -36,500; -606,000;    0,000;569,50000
 363,45;  -12,500; -526,000;    0,000;513,50000
 363,47;  -24,500;  373,000;    0,000;-397,50000
 363,48;  -30,500;  -83,000;    0,000;52,50000
 363,49;  -18,500;  -81,000;    0,000;62,50000
 363,50;  -36,500; -235,000;    0,000;198,50000
 363,51;    5,500; -449,000;    0,000;454,50000
 363,52;   14,500; -534,000;    0,000;548,50000
 363,53;   -1,500; -101,000;    0,000;99,50000
 363,55;    7,500; -545,000;    0,000;552,50000
 363,56;    5,000; -447,000;    0,000;452,00000
 363,57;  -59,500; -587,000;    0,000;527,50000
 363,58;  -22,000; -261,000;    0,000;239,00000
 363,59;    5,000; -467,000;    0,000;472,00000
 363,60;  -22,000; -172,000;    0,000;150,00000
 363,62;  -42,000; -296,000;    0,000;254,00000
 363,63;   14,500;  -55,000;    0,000;69,50000
 363,64;  -13,000; -285,000;    0,000;272,00000
 363,65;   49,000; -383,000;    0,000;432,00000
 363,66;  -22,000; -346,000;    0,000;324,00000
 363,67;   -9,500;  -30,000;    0,000;20,50000
 363,69;   42,000; -200,000;    0,000;242,00000
 363,70;  -12,000; -256,000;    0,000;244,00000
 363,71;  -26,500; -406,000;    0,000;379,50000
 363,72;   20,500; -385,000;    0,000;405,50000
 363,73;  -22,000; -279,000;    0,000;257,00000
 363,74;  -41,500; -368,000;    0,000;326,50000
 363,75;  -43,000; -284,000;    0,000;241,00000
 363,77;  -39,500; -339,000;    0,000;299,50000
 363,78;   17,000; -371,000;    0,000;388,00000
 363,79;   22,500;  225,000;    0,000;-202,50000
 363,80;   -9,000; -332,000;    0,000;323,00000
 363,81;    3,000; -350,000;    0,000;353,00000
 363,82;  -15,000; -518,000;    0,000;503,00000
 363,84;  -11,000; -381,000;    0,000;370,00000
 363,85;   -6,000; -112,000;    0,000;106,00000
 363,86;  -62,000;   14,000;    0,000;-76,00000
 363,87;   23,000; -473,000;    0,000;496,00000
 363,88;    1,000; -229,000;    0,000;230,00000
 363,89;    4,000; -455,000;    0,000;459,00000
 363,90;    6,500;   96,000;    0,000;-89,50000
 363,92;  -32,500; -469,000;    0,000;436,50000
 363,93;  -18,000; -194,000;    0,000;176,00000
 363,94;    6,000; -259,000;    0,000;265,00000
 363,95;   -8,500; -121,000;    0,000;112,50000
 363,96;   17,000; -598,000;    0,000;615,00000
 363,97;   22,000; -174,000;    0,000;196,00000
 363,99;   -7,000; -169,000;    0,000;162,00000
 364,00;   17,500; -301,000;    0,000;318,50000
 364,01;   -3,500; -329,000;    0,000;325,50000
 364,02;   -1,000; -521,000;    0,000;520,00000
 364,03;   -4,500;  255,000;    0,000;-259,50000
 364,04;  -57,000; -156,000;    0,000;99,00000
 364,05;   44,500; -319,000;    0,000;363,50000
 364,07;    2,500; -264,000;    0,000;266,50000
 364,08;   47,500; -369,000;    0,000;416,50000
 364,09;  -27,500;  618,000;    0,000;-645,50000
 364,10;   -9,000; -236,000;    0,000;227,00000
 364,11;   -4,500; -315,000;    0,000;310,50000
 364,12;   -4,000; -512,000;    0,000;508,00000
 364,13;  -40,500; -290,000;    0,000;249,50000
 364,15;    2,000; -407,000;    0,000;409,00000
 364,16;   44,000;  -92,000;    0,000;136,00000
 364,17;  -12,500; -576,000;    0,000;563,50000
 364,18;   -8,500; -564,000;    0,000;555,50000
 364,19;   12,500; -365,000;    0,000;377,50000
 364,20;  -34,500; -229,000;    0,000;194,50000
 364,21;   -6,000; -486,000;    0,000;480,00000
 364,23;   16,500;  -60,000;    0,000;76,50000
 364,24;  -32,500; -480,000;    0,000;447,50000
 364,25;  -32,000; -448,000;    0,000;416,00000
 364,26;  -48,500; -277,000;    0,000;228,50000
 364,27;  -18,500; -133,000;    0,000;114,50000
 364,28;  -54,000; -684,000;    0,000;630,00000
 364,29;  -49,000; -368,000;    0,000;319,00000
 364,31;   36,500; -278,000;    0,000;314,50000
 364,32;   -6,500; -656,000;    0,000;649,50000
 364,33;   49,500; -439,000;    0,000;488,50000
 364,34;  -54,500; -296,000;    0,000;241,50000
 364,35;   -8,500; -138,000;    0,000;129,50000
 364,36;  -13,500; -151,000;    0,000;137,50000
 364,37;  -23,500; -560,000;    0,000;536,50000
 364,39;  -65,000; -153,000;    0,000;88,00000
 364,40;   20,500; -348,000;    0,000;368,50000
 364,41;  -24,500;   65,000;    0,000;-89,50000
 364,42;   38,000; -528,000;    0,000;566,00000
 364,43;   35,000; -126,000;    0,000;161,00000
 364,44;  -36,500; -367,000;    0,000;330,50000
 364,45;  -19,500; -198,000;    0,000;178,50000
 364,46;    7,500; -480,000;    0,000;487,50000
 364,48;   -9,500; -272,000;    0,000;262,50000
 364,49;  -29,000; -337,000;    0,000;308,00000
 364,50;   -1,500;  -73,000;    0,000;71,50000
 364,51;  -29,000; -375,000;    0,000;346,00000
 364,52;  -16,500; -262,000;    0,000;245,50000
 364,53;    8,000; -446,000;    0,000;454,00000
 364,54;   30,000; -328,000;    0,000;358,00000
 364,56;    6,000; -571,000;    0,000;577,00000
 364,57;    1,000;  -67,000;    0,000;68,00000
 364,58;   13,500; -573,000;    0,000;586,50000
 364,59;    6,500; -361,000;    0,000;367,50000
 364,60;   -2,000; -352,000;    0,000;350,00000
 364,61;   54,500; -409,000;    0,000;463,50000
 364,62;   25,000; -342,000;    0,000;367,00000
 364,64;  -12,000; -292,000;    0,000;280,00000
 364,65;    1,000; -287,000;    0,000;288,00000
 364,66;    7,500; -248,000;    0,000;255,50000
 364,67;   28,000;  -53,000;    0,000;81,00000
 364,68;   -9,000; -293,000;    0,000;284,00000
 364,69;    4,000; -472,000;    0,000;476,00000
 364,70;  -34,000; 1239,000;    0,000;-1273,00000
 364,71;  -20,500; -512,000;    0,000;491,50000
 364,73;   37,500;   94,000;    0,000;-56,50000
 364,74;    8,500; -337,000;    0,000;345,50000
 364,75;  -20,500; -418,000;    0,000;397,50000
 364,76;    9,500; -185,000;    0,000;194,50000
 364,77;   -3,000; -310,000;    0,000;307,00000
 364,78;   -0,500; -451,000;    0,000;450,50000
 364,79;  -49,500; -182,000;    0,000;132,50000
 364,80;  -26,500; -367,000;    0,000;340,50000
 364,82;  -32,500; -270,000;    0,000;237,50000
 364,83;  -15,500; -535,000;    0,000;519,50000
 364,84;  -16,000;  117,000;    0,000;-133,00000
 364,85;  -33,000; -599,000;    0,000;566,00000
 364,86;    8,500;  147,000;    0,000;-138,50000
 364,87;  -11,500;   77,000;    0,000;-88,50000
 364,88;  -18,500;  353,000;    0,000;-371,50000
 364,89;  -18,500;  266,000;    0,000;-284,50000
 364,91;   26,000; -349,000;    0,000;375,00000
 364,92;    7,000; -439,000;    0,000;446,00000
 364,93;  -58,500; -255,000;    0,000;196,50000
 364,94;  -36,500; -258,000;    0,000;221,50000
 364,95;   -3,500; -113,000;    0,000;109,50000
 364,96;  -24,500; -329,000;    0,000;304,50000
 364,97;  -48,000; -557,000;    0,000;509,00000
 364,98;  -36,500; -128,000;    0,000;91,50000
 365,00;  -10,500;  -29,000;    0,000;18,50000
 365,01;    4,000; -461,000;    0,000;465,00000
 365,02;  -13,000; -498,000;    0,000;485,00000
 365,03;  -43,000; -303,000;    0,000;260,00000
 365,04;   -8,500; -158,000;    0,000;149,50000
 365,05;  -12,500; -487,000;    0,000;474,50000
 365,06;  -26,500; -456,000;    0,000;429,50000
 365,07;   -7,000; -375,000;    0,000;368,00000
 365,09;   17,000; -265,000;    0,000;282,00000
 365,10;  -43,500; -507,000;    0,000;463,50000
 365,11;  -44,500; -547,000;    0,000;502,50000
 365,12;   -2,500; -408,000;    0,000;405,50000
 365,13;  -38,000; -261,000;    0,000;223,00000
 365,14;   23,000; -111,000;    0,000;134,00000
 365,15;  -20,000;  -75,000;    0,000;55,00000
 365,16;   -1,500; -192,000;    0,000;190,50000
 365,18;   26,500; -118,000;    0,000;144,50000
 365,19;    6,500;  -35,000;    0,000;41,50000
 365,20;  -41,000; -443,000;    0,000;402,00000
 365,21;   33,000;  122,000;    0,000;-89,00000
 365,22;   -9,000; -176,000;    0,000;167,00000
 365,23;   17,000; -433,000;    0,000;450,00000
 365,24;    3,500; -561,000;    0,000;564,50000
 365,25;   -7,000; -340,000;    0,000;333,00000
 365,26;  -44,000; -317,000;    0,000;273,00000
 365,28;   30,500; -558,000;    0,000;588,50000
 365,29;  -32,000; -442,000;    0,000;410,00000
 365,30;    7,500; -147,000;    0,000;154,50000
 365,31;  -25,000; -182,000;    0,000;157,00000
 365,32;   -0,500; -435,000;    0,000;434,50000
 365,33;   16,000; -523,000;    0,000;539,00000
 365,34;  -19,000; -377,000;    0,000;358,00000
 365,35;  -38,000; -417,000;    0,000;379,00000
 365,36;  -26,500; -637,000;    0,000;610,50000
 365,38;  -18,000; -223,000;    0,000;205,00000
 365,39;  -12,500; -180,000;    0,000;167,50000
 365,40;  -83,000; -412,000;    0,000;329,00000
 365,41;   35,500; -497,000;    0,000;532,50000
 365,42;    5,000; -416,000;    0,000;421,00000
 365,43;  -46,500; -152,000;    0,000;105,50000
 365,44;   13,000;  -64,000;    0,000;77,00000
 365,45;  -13,500; -814,000;    0,000;800,50000
 365,46;   25,000; -366,000;    0,000;391,00000
 365,48;  -10,000; -410,000;    0,000;400,00000
 365,49;  -62,000;  -44,000;    0,000;-18,00000
 365,50;   19,000; -462,000;    0,000;481,00000
 365,51;  -24,500;  -65,000;    0,000;40,50000
 365,52;   25,000; -307,000;    0,000;332,00000
 365,53;  -45,500;   -9,000;    0,000;-36,50000
 365,54;   12,500; -550,000;    0,000;562,50000
 365,55;   -7,000; -407,000;    0,000;400,00000
 365,56;   20,500; -327,000;    0,000;347,50000
 365,58;  -29,000;  -65,000;    0,000;36,00000
 365,59;   19,000; -613,000;    0,000;632,00000
 365,60;    3,000; -107,000;    0,000;110,00000
 365,61;  -13,500; -278,000;    0,000;264,50000
 365,62;  -28,500; -431,000;    0,000;402,50000
 365,63;   -3,500; -565,000;    0,000;561,50000
 365,64;   32,000; -268,000;    0,000;300,00000
 365,65;  -35,500;  -38,000;    0,000; 2,50000
 365,66;   10,000; -183,000;    0,000;193,00000
 365,68;   -0,500; -258,000;    0,000;257,50000
 365,69;   -2,000; -528,000;    0,000;526,00000
 365,70;  -53,500; -428,000;    0,000;374,50000
 365,71;   12,000; -113,000;    0,000;125,00000
 365,72;    9,000; -236,000;    0,000;245,00000
 365,73;  -42,000; -221,000;    0,000;179,00000
 365,74;  -50,000; -486,000;    0,000;436,00000
 365,75;  -32,000; -268,000;    0,000;236,00000
 365,76;   -1,000;  -13,000;    0,000;12,00000
 365,77;  -66,000; -568,000;    0,000;502,00000
 365,79;   -3,000; -295,000;    0,000;292,00000
 365,80;    5,500; -233,000;    0,000;238,50000
 365,81;   11,000; -114,000;    0,000;125,00000
 365,82;  -29,000; -268,000;    0,000;239,00000
 365,83;  -29,000;   -2,000;    0,000;-27,00000
 365,84;  -25,000; -213,000;    0,000;188,00000
 365,85;  -37,500; -295,000;    0,000;257,50000
 365,86;  -16,000; -223,000;    0,000;207,00000
 365,87;  -45,500; -438,000;    0,000;392,50000
 365,88;  -28,000; -269,000;    0,000;241,00000
 365,90;   33,000; -105,000;    0,000;138,00000
 365,91;  -52,000;  181,000;    0,000;-233,00000
 365,92;   -3,500; -392,000;    0,000;388,50000
 365,93;  -26,000; -393,000;    0,000;367,00000
 365,94;    9,500; -219,000;    0,000;228,50000
 365,95;  -45,000; -356,000;    0,000;311,00000
 365,96;   18,000; -202,000;    0,000;220,00000
 365,97;  -28,000;   -2,000;    0,000;-26,00000
 365,98;   51,000; -103,000;    0,000;154,00000
 365,99;  -31,500; -599,000;    0,000;567,50000
 366,01;   38,000;   36,000;    0,000; 2,00000
 366,02;   31,500; -253,000;    0,000;284,50000
 366,03;   -8,000; -513,000;    0,000;505,00000
 366,04;  -44,000; -277,000;    0,000;233,00000
 366,05;    8,000;  -84,000;    0,000;92,00000
 366,06;    5,500; -142,000;    0,000;147,50000
 366,07;  -24,500; -803,000;    0,000;778,50000
 366,08;  -51,500; -336,000;    0,000;284,50000
 366,09;   44,500; -289,000;    0,000;333,50000
 366,10;  -42,500; -570,000;    0,000;527,50000
 366,11;   34,500; -355,000;    0,000;389,50000
 366,13;  -26,000; -427,000;    0,000;401,00000
 366,14;  -41,000; -554,000;    0,000;513,00000
 366,15;  -18,000; -438,000;    0,000;420,00000
 366,16;    1,500; -269,000;    0,000;270,50000
 366,17;  -13,500; -177,000;    0,000;163,50000
 366,18;  -13,500; -368,000;    0,000;354,50000
 366,19;   -3,000;  285,000;    0,000;-288,00000
 366,20;  -29,000; -371,000;    0,000;342,00000
 366,21;    7,000; -532,000;    0,000;539,00000
 366,22;   -8,000; -545,000;    0,000;537,00000
 366,24;  -37,000; -318,000;    0,000;281,00000
 366,25;  -39,000; -552,000;    0,000;513,00000
 366,26;    5,000; -491,000;    0,000;496,00000
 366,27;    1,500; -530,000;    0,000;531,50000
 366,28;   20,500; -158,000;    0,000;178,50000
 366,29;   23,500; -553,000;    0,000;576,50000
 366,30;   -2,000; -106,000;    0,000;104,00000
 366,31;   -9,500; -410,000;    0,000;400,50000
 366,32;  -24,000;  153,000;    0,000;-177,00000
 366,33;   17,000; -685,000;    0,000;702,00000
 366,34;    9,500; -200,000;    0,000;209,50000
 366,35;   -1,000; -105,000;    0,000;104,00000
 366,37;   12,000;  373,000;    0,000;-361,00000
 366,38;   19,500; -578,000;    0,000;597,50000
 366,39;   26,000; -152,000;    0,000;178,00000
 366,40;   50,500;  102,000;    0,000;-51,50000
 366,41;    7,000; -104,000;    0,000;111,00000
 366,42;  -24,500; -524,000;    0,000;499,50000
 366,43;  -24,000; -211,000;    0,000;187,00000
 366,44;  -42,500; -202,000;    0,000;159,50000
 366,45;  -11,000; -267,000;    0,000;256,00000
 366,46;  -11,000; -430,000;    0,000;419,00000
 366,47;   -0,500; -112,000;    0,000;111,50000
 366,49;   51,000;  478,000;    0,000;-427,00000
 366,50;   32,500; -363,000;    0,000;395,50000
 366,51;   21,500; -194,000;    0,000;215,50000
 366,52;  -19,000; -317,000;    0,000;298,00000
 366,53;   39,500;   14,000;    0,000;25,50000
 366,54;   33,000; -239,000;    0,000;272,00000
 366,55;   14,000;  158,000;    0,000;-144,00000
 366,56;    9,000; -107,000;    0,000;116,00000
 366,57;  -34,000; -393,000;    0,000;359,00000
 366,58;   -6,500; -385,000;    0,000;378,50000
 366,59;   31,000; -274,000;    0,000;305,00000
 366,60;   -6,500; -327,000;    0,000;320,50000
 366,61;  -19,000; -464,000;    0,000;445,00000
 366,63;  -44,500; -192,000;    0,000;147,50000
 366,64;  -34,500; -673,000;    0,000;638,50000
 366,65;  -10,000; -437,000;    0,000;427,00000
 366,66;  -47,500; -254,000;    0,000;206,50000
 366,67;   18,000;  126,000;    0,000;-108,00000
 366,68;  -18,500; -264,000;    0,000;245,50000
 366,69;   22,000; -284,000;    0,000;306,00000
 366,70;   -2,000;  -49,000;    0,000;47,00000
 366,71;    2,500; -413,000;    0,000;415,50000
 366,72;  -19,000; -621,000;    0,000;602,00000
 366,73;   13,000; -246,000;    0,000;259,00000
 366,74;   -3,000; -312,000;    0,000;309,00000
 366,75;   -1,500; -180,000;    0,000;178,50000
 366,77;   39,000; -257,000;    0,000;296,00000
 366,78;   18,000; -442,000;    0,000;460,00000
 366,79;    5,000;   65,000;    0,000;-60,00000
 366,80;   16,000; -382,000;    0,000;398,00000
 366,81;  -13,000; -266,000;    0,000;253,00000
 366,82;  -69,000; -236,000;    0,000;167,00000
 366,83;   16,000; -333,000;    0,000;349,00000
 366,84;  -29,000;   53,000;    0,000;-82,00000
 366,85;    3,500; -573,000;    0,000;576,50000
 366,86;  -35,000; -397,000;    0,000;362,00000
 366,87;  -45,000;  190,000;    0,000;-235,00000
 366,88;  -39,500; -334,000;    0,000;294,50000
 366,89;   -6,000; -132,000;    0,000;126,00000
 366,91;  -35,000; -166,000;    0,000;131,00000
 366,92;   14,500; -309,000;    0,000;323,50000
 366,93;  -42,000; -433,000;    0,000;391,00000
 366,94;   -3,000; -357,000;    0,000;354,00000
 366,95;   40,500; -306,000;    0,000;346,50000
 366,96;   14,000; -427,000;    0,000;441,00000
 366,97;   -0,500; -234,000;    0,000;233,50000
 366,98;    6,500; -601,000;    0,000;607,50000
 366,99;   -5,000;   72,000;    0,000;-77,00000
 367,00;   24,000; -137,000;    0,000;161,00000
 367,01;   -9,500; -201,000;    0,000;191,50000
 367,02;  -13,500;  -77,000;    0,000;63,50000
 367,03;  -16,500; -362,000;    0,000;345,50000
 367,04;   32,000; -294,000;    0,000;326,00000
 367,06;   26,500; -310,000;    0,000;336,50000
 367,07;  -18,000;  -25,000;    0,000; 7,00000
 367,08;  -17,500; -138,000;    0,000;120,50000
 367,09;  -38,500; -123,000;    0,000;84,50000
 367,10;   -1,500; -377,000;    0,000;375,50000
 367,11;   26,000; -365,000;    0,000;391,00000
 367,12;  -35,500; -510,000;    0,000;474,50000
 367,13;  -28,000;   59,000;    0,000;-87,00000
 367,14;  -13,500; -139,000;    0,000;125,50000
 367,15;   31,000; -501,000;    0,000;532,00000
 367,16;  -25,500; -358,000;    0,000;332,50000
 367,17;   68,000; -237,000;    0,000;305,00000
 367,18;  -28,500; -246,000;    0,000;217,50000
 367,19;    4,000; -334,000;    0,000;338,00000
 367,20;  -30,000; -206,000;    0,000;176,00000
 367,21;   19,000; -357,000;    0,000;376,00000
 367,23;  -30,500; -494,000;    0,000;463,50000
 367,24;  -21,500; -341,000;    0,000;319,50000
 367,25;  -50,500; -169,000;    0,000;118,50000
 367,26;  -27,500; -479,000;    0,000;451,50000
 367,27;  -14,000; -382,000;    0,000;368,00000
 367,28;   -6,500; -567,000;    0,000;560,50000
 367,29;  -20,500; -450,000;    0,000;429,50000
 367,30;   -5,500; -421,000;    0,000;415,50000
 367,31;  -34,000; -367,000;    0,000;333,00000
 367,32;   -1,000; -559,000;    0,000;558,00000
 367,33;  -34,000; -473,000;    0,000;439,00000
 367,34;   33,500; -369,000;    0,000;402,50000
 367,35;   -2,500; -152,000;    0,000;149,50000
 367,36;   38,500; -312,000;    0,000;350,50000
 367,37;  -25,000; -343,000;    0,000;318,00000
 367,38;   77,500; -605,000;    0,000;682,50000
 367,40;  -18,000; -422,000;    0,000;404,00000
 367,41;  -39,500; -186,000;    0,000;146,50000
 367,42;  -32,000;   26,000;    0,000;-58,00000
 367,43;  -21,500;  -54,000;    0,000;32,50000
 367,44;  -25,500; -266,000;    0,000;240,50000
 367,45;  -53,500; -321,000;    0,000;267,50000
 367,46;  -48,000; -371,000;    0,000;323,00000
 367,47;   29,500; -397,000;    0,000;426,50000
 367,48;   -9,000; -149,000;    0,000;140,00000
 367,49;   -7,000; -315,000;    0,000;308,00000
 367,50;  -24,000; -618,000;    0,000;594,00000
 367,51;  -11,000;  -34,000;    0,000;23,00000
 367,52;    5,500; -280,000;    0,000;285,50000
 367,53;   11,500; -149,000;    0,000;160,50000
 367,54;  -39,000; -365,000;    0,000;326,00000
 367,55;   -8,500; -151,000;    0,000;142,50000
 367,56;  -38,000; -349,000;    0,000;311,00000
 367,57;   42,500; -494,000;    0,000;536,50000
 367,59;   12,000; -382,000;    0,000;394,00000
 367,60;  -20,500;   35,000;    0,000;-55,50000
 367,61;   12,000;    1,000;    0,000;11,00000
 367,62;   -4,000; -311,000;    0,000;307,00000
 367,63;   56,000; -357,000;    0,000;413,00000
 367,64;    6,500;   35,000;    0,000;-28,50000
 367,65;   15,000;   22,000;    0,000;-7,00000
 367,66;  -36,500; -414,000;    0,000;377,50000
 367,67;   -1,500; -355,000;    0,000;353,50000
 367,68;   23,500; -553,000;    0,000;576,50000
 367,69;   40,000; -454,000;    0,000;494,00000
 367,70;   63,000; -477,000;    0,000;540,00000
 367,71;  -39,000; -249,000;    0,000;210,00000
 367,72;    4,000; -180,000;    0,000;184,00000
 367,73;  -65,000; -150,000;    0,000;85,00000
 367,74;   13,000; -243,000;    0,000;256,00000
 367,75;    4,000; -510,000;    0,000;514,00000
 367,76;   22,500; -525,000;    0,000;547,50000
 367,77;    3,500; -152,000;    0,000;155,50000
 367,78;    5,000; -233,000;    0,000;238,00000
 367,80;   27,000;  443,000;    0,000;-416,00000
 367,81;  -51,500; -547,000;    0,000;495,50000
 367,82;  -43,000; -228,000;    0,000;185,00000
 367,83;  -31,500; -360,000;    0,000;328,50000
 367,84;   -2,000;   78,000;    0,000;-80,00000
 367,85;   54,000; -127,000;    0,000;181,00000
 367,86;  -35,000; -153,000;    0,000;118,00000
 367,87;   25,500; -234,000;    0,000;259,50000
 367,88;  -16,500; -636,000;    0,000;619,50000
 367,89;   36,500; -407,000;    0,000;443,50000
 367,90;  -41,500; -175,000;    0,000;133,50000
 367,91;   27,500; -313,000;    0,000;340,50000
 367,92;    5,000; -179,000;    0,000;184,00000
 367,93;  -46,500; -426,000;    0,000;379,50000
 367,94;   -2,000; -221,000;    0,000;219,00000
 367,95;  -11,000; -324,000;    0,000;313,00000
 367,96;  -43,500; -410,000;    0,000;366,50000
 367,97;   17,000; -502,000;    0,000;519,00000
 367,98;  -43,500;   -9,000;    0,000;-34,50000
 367,99;  -31,500; -197,000;    0,000;165,50000
 368,00;  -51,000; -594,000;    0,000;543,00000
 368,01;  -69,000; -349,000;    0,000;280,00000
 368,03;  -35,000;  139,000;    0,000;-174,00000
 368,04;  -27,000; -649,000;    0,000;622,00000
 368,05;   23,500; -144,000;    0,000;167,50000
 368,06;   14,500;  139,000;    0,000;-124,50000
 368,07;  -10,000; -504,000;    0,000;494,00000
 368,08;   22,000; -309,000;    0,000;331,00000
 368,09;  -11,000;   30,000;    0,000;-41,00000
 368,10;  -27,500;  -14,000;    0,000;-13,50000
 368,11;   -2,000;   34,000;    0,000;-36,00000
 368,12;  -27,500; -510,000;    0,000;482,50000
 368,13;   40,500; -214,000;    0,000;254,50000
 368,14;   30,000;   93,000;    0,000;-63,00000
 368,15;  -15,000; -169,000;    0,000;154,00000
 368,16;  -35,000; -397,000;    0,000;362,00000
 368,17;   25,000; -317,000;    0,000;342,00000
 368,18;  -16,000; -275,000;    0,000;259,00000
 368,19;   -6,500; -339,000;    0,000;332,50000
 368,20;  -79,000; -723,000;    0,000;644,00000
 368,21;   13,000; -330,000;    0,000;343,00000
 368,22;    9,000; -425,000;    0,000;434,00000
 368,23;  -44,500; -231,000;    0,000;186,50000
 368,24;   19,500; -520,000;    0,000;539,50000
 368,25;   -9,000; -365,000;    0,000;356,00000
 368,26;   23,000; -429,000;    0,000;452,00000
 368,27;  -14,000;  236,000;    0,000;-250,00000
 368,28;  -33,500; -704,000;    0,000;670,50000
 368,29;  -10,500; -132,000;    0,000;121,50000
 368,30;    7,500;  -11,000;    0,000;18,50000
 368,32;   -7,000; -534,000;    0,000;527,00000
 368,33;   23,500; -724,000;    0,000;747,50000
 368,34;  -24,500; -466,000;    0,000;441,50000
 368,35;    6,500; -126,000;    0,000;132,50000
 368,36;  -37,500; -295,000;    0,000;257,50000
 368,37;  -61,000; -575,000;    0,000;514,00000
 368,38;    7,000; -168,000;    0,000;175,00000
 368,39;    6,500; -225,000;    0,000;231,50000
 368,40;   11,500; -223,000;    0,000;234,50000
 368,41;   39,000;  -22,000;    0,000;61,00000
 368,42;  -14,000; -323,000;    0,000;309,00000
 368,43;   28,000;  270,000;    0,000;-242,00000
 368,44;   43,500; -100,000;    0,000;143,50000
 368,45;  -54,500; -686,000;    0,000;631,50000
 368,46;  -74,000; -393,000;    0,000;319,00000
 368,47;   -6,500;  -84,000;    0,000;77,50000
 368,48;   11,500;  -85,000;    0,000;96,50000
 368,49;   26,500; -858,000;    0,000;884,50000
 368,50;  -17,000; -623,000;    0,000;606,00000
 368,51;   -9,500; -209,000;    0,000;199,50000
 368,52;  -34,000; -252,000;    0,000;218,00000
 368,53;  -89,500; -417,000;    0,000;327,50000
 368,54;   37,000; -369,000;    0,000;406,00000
 368,55;    7,000; -346,000;    0,000;353,00000
 368,56;   40,500;  104,000;    0,000;-63,50000
 368,57;   -1,500; -578,000;    0,000;576,50000
 368,58;    4,500; -372,000;    0,000;376,50000
 368,59;   40,500; -435,000;    0,000;475,50000
 368,60;    7,000; -277,000;    0,000;284,00000
 368,61;  -17,000; -578,000;    0,000;561,00000
 368,62;   22,000; -145,000;    0,000;167,00000
 368,63;  -42,000; -132,000;    0,000;90,00000
 368,64;    0,000;  -27,000;    0,000;27,00000
 368,65;   29,500; -477,000;    0,000;506,50000
 368,66;   -5,000; -413,000;    0,000;408,00000
 368,67;    2,500;  103,000;    0,000;-100,50000
 368,68;  -23,500; -284,000;    0,000;260,50000
 368,70;  -53,000; -262,000;    0,000;209,00000
 368,71;   -2,500; -284,000;    0,000;281,50000
 368,72;   -6,500; -287,000;    0,000;280,50000
 368,73;  -40,000; -108,000;    0,000;68,00000
 368,74;    0,000; -528,000;    0,000;528,00000
 368,75;   16,000;  303,000;    0,000;-287,00000
 368,76;  -45,500;  370,000;    0,000;-415,50000
 368,77;  -19,000; -217,000;    0,000;198,00000
 368,78;   -7,000; -480,000;    0,000;473,00000
 368,79;   17,500; -204,000;    0,000;221,50000
 368,80;   16,500; -243,000;    0,000;259,50000
 368,81;  -14,000;    7,000;    0,000;-21,00000
 368,82;   -8,000; -497,000;    0,000;489,00000
 368,83;  -35,000; -492,000;    0,000;457,00000
 368,84;  -28,500; -524,000;    0,000;495,50000
 368,85;  -28,000; -159,000;    0,000;131,00000
 368,86;  -64,000; -445,000;    0,000;381,00000
 368,87;  -13,500; -522,000;    0,000;508,50000
 368,88;   32,500; -216,000;    0,000;248,50000
 368,89;  -11,500; -306,000;    0,000;294,50000
 368,90;  -12,500; -466,000;    0,000;453,50000
 368,91;  -42,500; -820,000;    0,000;777,50000
 368,92;  -55,000;  -87,000;    0,000;32,00000
 368,93;   -4,500;   36,000;    0,000;-40,50000
 368,94;    4,000; -577,000;    0,000;581,00000
 368,95;  -15,500; -485,000;    0,000;469,50000
 368,96;   27,500; -250,000;    0,000;277,50000
 368,97;  -27,000; -295,000;    0,000;268,00000
 368,98;    3,500; -420,000;    0,000;423,50000
 368,99;   15,500; -262,000;    0,000;277,50000
 369,00;  -23,000; -333,000;    0,000;310,00000
 369,01;  -16,500; -217,000;    0,000;200,50000
 369,02;  -17,500; -566,000;    0,000;548,50000
 369,03;  -25,500; -270,000;    0,000;244,50000
 369,04;   18,500; -407,000;    0,000;425,50000
 369,05;  -13,000; -210,000;    0,000;197,00000
 369,06;    8,500; -353,000;    0,000;361,50000
 369,07;  -35,500; -339,000;    0,000;303,50000
 369,08;   26,000; -335,000;    0,000;361,00000
 369,09;  -22,500;  587,000;    0,000;-609,50000
 369,10;   33,500; -627,000;    0,000;660,50000
 369,11;   29,000; -274,000;    0,000;303,00000
 369,12;   -1,000; -386,000;    0,000;385,00000
 369,13;   26,500;  -55,000;    0,000;81,50000
 369,14;  -32,500;  -27,000;    0,000;-5,50000
 369,15;  -21,500; -545,000;    0,000;523,50000
 369,16;  -27,500; -431,000;    0,000;403,50000
 369,17;   42,000; -283,000;    0,000;325,00000
 369,18;   28,000; -316,000;    0,000;344,00000
 369,19;  -49,500; -571,000;    0,000;521,50000
 369,20;    3,000; -441,000;    0,000;444,00000
 369,21;  -41,500; -347,000;    0,000;305,50000
 369,22;    9,000; -634,000;    0,000;643,00000
 369,23;  -31,500;  134,000;    0,000;-165,50000
 369,24;   30,000; -186,000;    0,000;216,00000
 369,25;    1,000; -262,000;    0,000;263,00000
 369,26;   -2,000; -642,000;    0,000;640,00000
 369,27;    3,000;  -91,000;    0,000;94,00000
 369,28;  -18,000;  -61,000;    0,000;43,00000
 369,29;   29,500; -237,000;    0,000;266,50000
 369,30;  -34,000; -575,000;    0,000;541,00000
 369,31;  -36,500; -269,000;    0,000;232,50000
 369,32;  -25,000; -428,000;    0,000;403,00000
 369,33;    2,500; -300,000;    0,000;302,50000
 369,34;   46,500; -623,000;    0,000;669,50000
 369,35;  -28,500; -141,000;    0,000;112,50000
 369,36;   19,500; -251,000;    0,000;270,50000
 369,37;  -51,000; -200,000;    0,000;149,00000
 369,38;  -55,000;   72,000;    0,000;-127,00000
 369,39;   19,000;  -49,000;    0,000;68,00000
 369,40;   18,500; -221,000;    0,000;239,50000
 369,41;  -18,500; -313,000;    0,000;294,50000
 369,42;   -8,000; -450,000;    0,000;442,00000
 369,43;   20,000;   48,000;    0,000;-28,00000
 369,44;   -6,500; -353,000;    0,000;346,50000
 369,45;   16,000;  -38,000;    0,000;54,00000
 369,46;  -24,500; -341,000;    0,000;316,50000
 369,47;  -23,500;  -67,000;    0,000;43,50000
 369,48;  -12,500; -270,000;    0,000;257,50000
 369,49;  -28,500;    6,000;    0,000;-34,50000
 369,50;   29,000; -513,000;    0,000;542,00000
 369,51;    0,000; -104,000;    0,000;104,00000
 369,52;   -9,000; -280,000;    0,000;271,00000
 369,53;  -59,000; -573,000;    0,000;514,00000
 369,54;   23,500; -445,000;    0,000;468,50000
 369,55;    1,000; -274,000;    0,000;275,00000
 369,56;  -33,000; -502,000;    0,000;469,00000
 369,57;  -17,000; -246,000;    0,000;229,00000
 369,58;   23,000; -725,000;    0,000;748,00000
 369,59;  -69,000; -522,000;    0,000;453,00000
 369,60;   57,500;  -85,000;    0,000;142,50000
 369,61;  -18,000; -311,000;    0,000;293,00000
 369,62;   42,500; -347,000;    0,000;389,50000
 369,63;    1,000;  262,000;    0,000;-261,00000
 369,64;  -50,000; -151,000;    0,000;101,00000
 369,65;    4,000; -136,000;    0,000;140,00000
 369,66;   48,000; -528,000;    0,000;576,00000
 369,67;   -4,500; -295,000;    0,000;290,50000
 369,68;  -19,500; -283,000;    0,000;263,50000
 369,69;  -20,500;  165,000;    0,000;-185,50000
 369,70;   -7,500; -474,000;    0,000;466,50000
 369,71;   -8,500; -466,000;    0,000;457,50000
 369,72;   -5,500;  -58,000;    0,000;52,50000
 369,73;  -13,000;  183,000;    0,000;-196,00000
 369,74;    9,500; -464,000;    0,000;473,50000
 369,75;   -7,500; -393,000;    0,000;385,50000
 369,76;    4,500; -251,000;    0,000;255,50000
 369,77;    9,500; -485,000;    0,000;494,50000
 369,78;   -2,000; -451,000;    0,000;449,00000
 369,79;  -28,000; -254,000;    0,000;226,00000
 369,80;   17,000; -397,000;    0,000;414,00000
 369,81;  -29,500;   61,000;    0,000;-90,50000
 369,82;   15,500; -693,000;    0,000;708,50000
 369,83;  -19,500; -459,000;    0,000;439,50000
 369,84;  -35,500; -351,000;    0,000;315,50000
 369,85;   36,000;   62,000;    0,000;-26,00000
 369,86;  -39,000; -616,000;    0,000;577,00000
 369,87;  -26,000; -430,000;    0,000;404,00000
 369,88;    8,000; -220,000;    0,000;228,00000
 369,89;   26,000; -273,000;    0,000;299,00000
 369,90;   -6,500; -161,000;    0,000;154,50000
 369,91;  -12,000; -376,000;    0,000;364,00000
 369,92;   14,000;  -69,000;    0,000;83,00000
 369,93;  -10,500; -256,000;    0,000;245,50000
 369,94;   14,000; -269,000;    0,000;283,00000
 369,95;  -35,000; -576,000;    0,000;541,00000
 369,96;  -53,000;  152,000;    0,000;-205,00000
 369,97;  -82,500; -356,000;    0,000;273,50000
 369,98;  -43,500; -214,000;    0,000;170,50000
 369,99;   21,500; -114,000;    0,000;135,50000
 370,00;    4,500;  -34,000;    0,000;38,50000
 370,01;   70,000;  184,000;    0,000;-114,00000
 370,02;   37,500; -536,000;    0,000;573,50000
 370,03;  -27,000; -445,000;    0,000;418,00000
 370,04;   42,500;  215,000;    0,000;-172,50000
 370,05;   16,000; -123,000;    0,000;139,00000
 370,06;  -22,000; -544,000;    0,000;522,00000
 370,07;  -19,000; -286,000;    0,000;267,00000
 370,08;    1,500; -523,000;    0,000;524,50000
 370,09;  -24,000;  556,000;    0,000;-580,00000
 370,10;    8,000; -520,000;    0,000;528,00000
 370,11;  -27,500; -330,000;    0,000;302,50000
 370,12;    0,500; -457,000;    0,000;457,50000
 370,13;  -18,500; -519,000;    0,000;500,50000
 370,14;   29,000; -156,000;    0,000;185,00000
 370,14;  -18,500; -320,000;    0,000;301,50000
 370,15;   25,000; -219,000;    0,000;244,00000
 370,16;  -35,500; -440,000;    0,000;404,50000
 370,17;    7,500; -566,000;    0,000;573,50000
 370,18;   46,000;  -88,000;    0,000;134,00000
 370,19;   14,500;  -76,000;    0,000;90,50000
 370,20;    1,000;  151,000;    0,000;-150,00000
 370,21;   27,000; -340,000;    0,000;367,00000
 370,22;  -20,000; -297,000;    0,000;277,00000
 370,23;  -55,000; -496,000;    0,000;441,00000
 370,24;  -25,000; -228,000;    0,000;203,00000
 370,25;   23,500;  225,000;    0,000;-201,50000
 370,26;  -59,000; -580,000;    0,000;521,00000
 370,27;  -22,000;  -69,000;    0,000;47,00000
 370,28;  -43,000;   70,000;    0,000;-113,00000
 370,29;   -3,500; -868,000;    0,000;864,50000
 370,30;  -12,500; -419,000;    0,000;406,50000
 370,31;    8,000; -216,000;    0,000;224,00000
 370,32;  -30,500; -204,000;    0,000;173,50000
 370,33;  -24,500; -723,000;    0,000;698,50000
 370,34;  -21,000;  -72,000;    0,000;51,00000
 370,35;   32,500; -400,000;    0,000;432,50000
 370,36;   -5,500; -100,000;    0,000;94,50000
 370,37;   29,500; -656,000;    0,000;685,50000
 370,38;    6,000; -279,000;    0,000;285,00000
 370,39;   41,000; -320,000;    0,000;361,00000
 370,40;  -41,500; -314,000;    0,000;272,50000
 370,41;  -28,000; -422,000;    0,000;394,00000
 370,42;    8,000; -548,000;    0,000;556,00000
 370,43;   26,000; -482,000;    0,000;508,00000
 370,44;  -16,000; -278,000;    0,000;262,00000
 370,45;   15,000; -521,000;    0,000;536,00000
 370,46;    5,500; -191,000;    0,000;196,50000
 370,47;   -1,500;   74,000;    0,000;-75,50000
 370,48;  -59,500; -147,000;    0,000;87,50000
 370,49;   18,000; -839,000;    0,000;857,00000
 370,50;    6,000; -360,000;    0,000;366,00000
 370,50;  -41,500; -402,000;    0,000;360,50000
 370,51;   44,000; -207,000;    0,000;251,00000
 370,52;  -40,000;   48,000;    0,000;-88,00000
 370,53;  -44,500; -339,000;    0,000;294,50000
 370,54;  -43,000;  -92,000;    0,000;49,00000
 370,55;    3,500; -215,000;    0,000;218,50000
 370,56;   46,000; -306,000;    0,000;352,00000
 370,57;  -17,500; -318,000;    0,000;300,50000
 370,58;   15,500; -170,000;    0,000;185,50000
 370,59;    4,000;  124,000;    0,000;-120,00000
 370,60;  -46,500; -406,000;    0,000;359,50000
 370,61;   22,500; -133,000;    0,000;155,50000
 370,62;   75,000;  -73,000;    0,000;148,00000
 370,63;    9,500; -327,000;    0,000;336,50000
 370,64;  -11,500; -450,000;    0,000;438,50000
 370,65;   -0,500;  -75,000;    0,000;74,50000
 370,66;   11,000; -539,000;    0,000;550,00000
 370,67;  -30,000;  -30,000;    0,000; 0,00000
 370,68;  -18,500; -438,000;    0,000;419,50000
 370,69;  -47,000; -475,000;    0,000;428,00000
 370,70;    4,500; -312,000;    0,000;316,50000
 370,71;  -46,000; -269,000;    0,000;223,00000
 370,72;  -77,000; -573,000;    0,000;496,00000
 370,73;  -48,500; -329,000;    0,000;280,50000
 370,74;  -17,000; -338,000;    0,000;321,00000
 370,75;  -47,500; -406,000;    0,000;358,50000
 370,76;    4,000; -475,000;    0,000;479,00000
 370,76;   -3,000; -316,000;    0,000;313,00000
 370,77;   12,500; -393,000;    0,000;405,50000
 370,78;   24,000; -205,000;    0,000;229,00000
 370,79;    6,000; -553,000;    0,000;559,00000
 370,80;   -3,500;  159,000;    0,000;-162,50000
 370,81;   41,000;  -82,000;    0,000;123,00000
 370,82;  -22,500;  -92,000;    0,000;69,50000
 370,83;  -15,000; -231,000;    0,000;216,00000
 370,84;  -21,500; -406,000;    0,000;384,50000
 370,85;  -42,000; -191,000;    0,000;149,00000
 370,86;  -35,000;  161,000;    0,000;-196,00000
 370,87;   16,500; -320,000;    0,000;336,50000
 370,88;    8,000; -139,000;    0,000;147,00000
 370,89;  -12,000; -245,000;    0,000;233,00000
 370,90;    4,500; -133,000;    0,000;137,50000
 370,91;  -24,500; -480,000;    0,000;455,50000
 370,92;  -13,000; -240,000;    0,000;227,00000
 370,93;   -2,000; -370,000;    0,000;368,00000
 370,94;  -51,500; -186,000;    0,000;134,50000
 370,95;   46,000;  -39,000;    0,000;85,00000
 370,96;   -8,000; -254,000;    0,000;246,00000
 370,97;  -37,500; -458,000;    0,000;420,50000
 370,98;   14,500; -261,000;    0,000;275,50000
 370,98;  -67,000; -237,000;    0,000;170,00000
 370,99;   13,500; 1753,000;    0,000;-1739,50000
 371,00;   -9,000; -139,000;    0,000;130,00000
 371,01;  -54,500; -173,000;    0,000;118,50000
 371,02;    8,000;  -39,000;    0,000;47,00000
 371,03;  -50,000; -496,000;    0,000;446,00000

