
Integration time [ms]:  25,000
Averaging Nr. [scans]: 5
Smoothing Nr. [pixels]: 0
Data measured with spectrometer [name]: 1804341U2
Wave   ;Sample   ;Dark     ;Reference;Scope Corrected for Dark
[nm]   ;[counts] ;[counts] ;[counts] 

 317,76;   -0,600;  -48,000;    0,000;47,40000
 317,78;   30,400;  106,000;    0,000;-75,60000
 317,80;  -16,400; -160,000;    0,000;143,60000
 317,82;   21,400;  812,000;    0,000;-790,60000
 317,84;    0,600; -344,000;    0,000;344,60000
 317,86;   -3,200; -306,000;    0,000;302,80000
 317,88;  -13,400;  103,000;    0,000;-116,40000
 317,90;   28,600;  136,000;    0,000;-107,40000
 317,92;    1,600; -446,000;    0,000;447,60000
 317,94;    4,800; -234,000;    0,000;238,80000
 317,96;   -0,400; -147,000;    0,000;146,60000
 317,98;   37,400; -180,000;    0,000;217,40000
 318,00;  -34,000; -512,000;    0,000;478,00000
 318,02;   34,200; -183,000;    0,000;217,20000
 318,04;  -11,400; -401,000;    0,000;389,60000
 318,05;   -5,000;  125,000;    0,000;-130,00000
 318,07;   18,600; -350,000;    0,000;368,60000
 318,09;   23,000;  -52,000;    0,000;75,00000
 318,11;    1,200;  716,000;    0,000;-714,80000
 318,13;    3,400;  564,000;    0,000;-560,60000
 318,15;  -37,200;  -86,000;    0,000;48,80000
 318,17;  -12,600; -375,000;    0,000;362,40000
 318,19;  -39,200;   -2,000;    0,000;-37,20000
 318,21;   -1,600;  -38,000;    0,000;36,40000
 318,23;  -15,200; -386,000;    0,000;370,80000
 318,25;    4,600;  -79,000;    0,000;83,60000
 318,27;   47,800;   32,000;    0,000;15,80000
 318,29;   34,200;  -73,000;    0,000;107,20000
 318,30;  -19,200; -199,000;    0,000;179,80000
 318,32;  -15,000; -167,000;    0,000;152,00000
 318,34;    1,600; -270,000;    0,000;271,60000
 318,36;   10,800;  398,000;    0,000;-387,20000
 318,38;  -21,000; -393,000;    0,000;372,00000
 318,40;   40,400;  -61,000;    0,000;101,40000
 318,42;  -34,800;  196,000;    0,000;-230,80000
 318,44;   12,000;  -25,000;    0,000;37,00000
 318,46;  -18,800; -275,000;    0,000;256,20000
 318,48;   -8,800; -552,000;    0,000;543,20000
 318,50;   17,600; -125,000;    0,000;142,60000
 318,52;   18,600;  368,000;    0,000;-349,40000
 318,54;    8,600; -319,000;    0,000;327,60000
 318,55;   13,000; -329,000;    0,000;342,00000
 318,57;  -17,800;  200,000;    0,000;-217,80000
 318,59;   10,400; -140,000;    0,000;150,40000
 318,61;    3,400; -132,000;    0,000;135,40000
 318,63;   30,600; -371,000;    0,000;401,60000
 318,65;   -4,600;  259,000;    0,000;-263,60000
 318,67;  -16,000; -242,000;    0,000;226,00000
 318,69;   27,800; -256,000;    0,000;283,80000
 318,71;    0,400; -336,000;    0,000;336,40000
 318,73;  -11,400;  -96,000;    0,000;84,60000
 318,75;   10,200;   84,000;    0,000;-73,80000
 318,77;    1,800; -295,000;    0,000;296,80000
 318,79;  -10,600;   84,000;    0,000;-94,60000
 318,80;   20,800;  258,000;    0,000;-237,20000
 318,82;    8,600;  212,000;    0,000;-203,40000
 318,84;   21,200; -400,000;    0,000;421,20000
 318,86;   50,000;  107,000;    0,000;-57,00000
 318,88;  -21,600;  -38,000;    0,000;16,40000
 318,90;   30,200;   61,000;    0,000;-30,80000
 318,92;   16,800; -164,000;    0,000;180,80000
 318,94;   -9,600;  182,000;    0,000;-191,60000
 318,96;   -5,400; -149,000;    0,000;143,60000
 318,98;   15,600;  219,000;    0,000;-203,40000
 319,00;   -2,000; -310,000;    0,000;308,00000
 319,02;   63,600; -378,000;    0,000;441,60000
 319,03;  -41,600; -217,000;    0,000;175,40000
 319,05;  -44,200; -200,000;    0,000;155,80000
 319,07;   20,600; -111,000;    0,000;131,60000
 319,09;   -6,800;  -41,000;    0,000;34,20000
 319,11;    2,800;  193,000;    0,000;-190,20000
 319,13;  -26,000;  352,000;    0,000;-378,00000
 319,15;  -46,200; -444,000;    0,000;397,80000
 319,17;    2,600; -219,000;    0,000;221,60000
 319,19;  -21,400;  119,000;    0,000;-140,40000
 319,21;   37,400;  357,000;    0,000;-319,60000
 319,23;   18,200; -472,000;    0,000;490,20000
 319,25;   -0,600; -370,000;    0,000;369,40000
 319,26;  -12,600;   46,000;    0,000;-58,60000
 319,28;  -16,200;  240,000;    0,000;-256,20000
 319,30;    0,600; -496,000;    0,000;496,60000
 319,32;   24,400;  -20,000;    0,000;44,40000
 319,34;  -12,000;  391,000;    0,000;-403,00000
 319,36;   16,200;  425,000;    0,000;-408,80000
 319,38;   16,000; -542,000;    0,000;558,00000
 319,40;   22,200;  -82,000;    0,000;104,20000
 319,42;    7,600;   10,000;    0,000;-2,40000
 319,44;   -9,600;   82,000;    0,000;-91,60000
 319,46;    6,800;  108,000;    0,000;-101,20000
 319,47;   11,600;  191,000;    0,000;-179,40000
 319,49;   -4,200; -147,000;    0,000;142,80000
 319,51;    0,200;   55,000;    0,000;-54,80000
 319,53;    2,200; -665,000;    0,000;667,20000
 319,55;   23,200; -386,000;    0,000;409,20000
 319,57;    6,600;  163,000;    0,000;-156,40000
 319,59;    9,600; -125,000;    0,000;134,60000
 319,61;   38,600; -343,000;    0,000;381,60000
 319,63;    5,800; -308,000;    0,000;313,80000
 319,65;   42,400;  297,000;    0,000;-254,60000
 319,67;  -23,400;  114,000;    0,000;-137,40000
 319,68;   18,000; -225,000;    0,000;243,00000
 319,70;   -5,400;   77,000;    0,000;-82,40000
 319,72;    0,800; -352,000;    0,000;352,80000
 319,74;  -20,400; -133,000;    0,000;112,60000
 319,76;   12,200; -199,000;    0,000;211,20000
 319,78;    5,800;   36,000;    0,000;-30,20000
 319,80;   -1,600;  -32,000;    0,000;30,40000
 319,82;   24,800;  762,000;    0,000;-737,20000
 319,84;    3,000; -149,000;    0,000;152,00000
 319,86;   -2,200;  -75,000;    0,000;72,80000
 319,88;   -5,800;   48,000;    0,000;-53,80000
 319,89;   51,800;   84,000;    0,000;-32,20000
 319,91;  -32,200; -359,000;    0,000;326,80000
 319,93;   49,600;   62,000;    0,000;-12,40000
 319,95;   11,800; -240,000;    0,000;251,80000
 319,97;   25,200;  268,000;    0,000;-242,80000
 319,99;   13,200; -440,000;    0,000;453,20000
 320,01;    5,200; -245,000;    0,000;250,20000
 320,03;    6,200;  -67,000;    0,000;73,20000
 320,05;   25,800;  888,000;    0,000;-862,20000
 320,07;   27,600; -170,000;    0,000;197,60000
 320,08;   10,200;  304,000;    0,000;-293,80000
 320,10;    5,400;   57,000;    0,000;-51,60000
 320,12;   10,000;  183,000;    0,000;-173,00000
 320,14;   17,800; -316,000;    0,000;333,80000
 320,16;   27,000; -353,000;    0,000;380,00000
 320,18;   -0,400;  -96,000;    0,000;95,60000
 320,20;    6,400;  597,000;    0,000;-590,60000
 320,22;  -22,400; -513,000;    0,000;490,60000
 320,24;    8,400;  232,000;    0,000;-223,60000
 320,26;   32,000; -127,000;    0,000;159,00000
 320,28;   12,800; -100,000;    0,000;112,80000
 320,29;   34,600; -352,000;    0,000;386,60000
 320,31;  -16,600;   80,000;    0,000;-96,60000
 320,33;  -17,200;   24,000;    0,000;-41,20000
 320,35;    9,200;  691,000;    0,000;-681,80000
 320,37;   10,800; -110,000;    0,000;120,80000
 320,39;   26,000;  -62,000;    0,000;88,00000
 320,41;  -16,400;  -60,000;    0,000;43,60000
 320,43;   58,400;  282,000;    0,000;-223,60000
 320,45;   -7,400; -493,000;    0,000;485,60000
 320,46;   24,800; -447,000;    0,000;471,80000
 320,48;   19,200;  157,000;    0,000;-137,80000
 320,50;   -1,800;  154,000;    0,000;-155,80000
 320,52;  -14,400;  -45,000;    0,000;30,60000
 320,54;   -1,800;   92,000;    0,000;-93,80000
 320,56;   10,400;  326,000;    0,000;-315,60000
 320,58;   29,800;  929,000;    0,000;-899,20000
 320,60;    8,800;  -33,000;    0,000;41,80000
 320,62;   39,600;   20,000;    0,000;19,60000
 320,64;    8,600;  104,000;    0,000;-95,40000
 320,65;   -1,000;   85,000;    0,000;-86,00000
 320,67;   -7,200; -596,000;    0,000;588,80000
 320,69;    2,600; -216,000;    0,000;218,60000
 320,71;    8,200;  306,000;    0,000;-297,80000
 320,73;    4,000;   26,000;    0,000;-22,00000
 320,75;  -20,000; -446,000;    0,000;426,00000
 320,77;   34,400; -470,000;    0,000;504,40000
 320,79;   -7,800;   12,000;    0,000;-19,80000
 320,81;   27,000;  115,000;    0,000;-88,00000
 320,83;   -9,600; -125,000;    0,000;115,40000
 320,84;   64,200;  189,000;    0,000;-124,80000
 320,86;   16,600;  431,000;    0,000;-414,40000
 320,88;   21,000;   28,000;    0,000;-7,00000
 320,90;    2,800; -115,000;    0,000;117,80000
 320,92;   14,600;   70,000;    0,000;-55,40000
 320,94;   -0,800;  -54,000;    0,000;53,20000
 320,96;   -9,200;  198,000;    0,000;-207,20000
 320,98;   29,800; -478,000;    0,000;507,80000
 321,00;  -15,600; -187,000;    0,000;171,40000
 321,01;   26,600;  609,000;    0,000;-582,40000
 321,03;  -30,600;  -89,000;    0,000;58,40000
 321,05;    4,800;  -19,000;    0,000;23,80000
 321,07;  -14,800; -291,000;    0,000;276,20000
 321,09;    8,800;  402,000;    0,000;-393,20000
 321,11;  -13,000;  353,000;    0,000;-366,00000
 321,13;   25,600; -477,000;    0,000;502,60000
 321,15;    4,200;  -21,000;    0,000;25,20000
 321,17;   21,400;  188,000;    0,000;-166,60000
 321,18;   19,600;    1,000;    0,000;18,60000
 321,20;    8,600; -428,000;    0,000;436,60000
 321,22;   50,000;  264,000;    0,000;-214,00000
 321,24;    5,600;  135,000;    0,000;-129,40000
 321,26;    7,000;  204,000;    0,000;-197,00000
 321,28;   -3,200; -288,000;    0,000;284,80000
 321,30;   38,800;   64,000;    0,000;-25,20000
 321,32;    9,000; -164,000;    0,000;173,00000
 321,34;   13,400;  362,000;    0,000;-348,60000
 321,35;  -25,400; -448,000;    0,000;422,60000
 321,37;   26,600;  -48,000;    0,000;74,60000
 321,39;    1,200; -366,000;    0,000;367,20000
 321,41;    5,800;  434,000;    0,000;-428,20000
 321,43;   -3,400; -103,000;    0,000;99,60000
 321,45;    7,000; -164,000;    0,000;171,00000
 321,47;  -12,000;  276,000;    0,000;-288,00000
 321,49;   -0,400;  179,000;    0,000;-179,40000
 321,51;   -2,600; -603,000;    0,000;600,40000
 321,52;   46,000;  347,000;    0,000;-301,00000
 321,54;  -15,600;   50,000;    0,000;-65,60000
 321,56;   30,800;  140,000;    0,000;-109,20000
 321,58;   -7,600; -423,000;    0,000;415,40000
 321,60;   -9,000; -151,000;    0,000;142,00000
 321,62;    6,000; -173,000;    0,000;179,00000
 321,64;   51,600;  441,000;    0,000;-389,40000
 321,66;    0,800; -410,000;    0,000;410,80000
 321,67;  -11,000; -251,000;    0,000;240,00000
 321,69;  -13,600;  -86,000;    0,000;72,40000
 321,71;    2,200;   72,000;    0,000;-69,80000
 321,73;   31,200;  318,000;    0,000;-286,80000
 321,75;    4,800;  683,000;    0,000;-678,20000
 321,77;  -21,400;  134,000;    0,000;-155,40000
 321,79;  -11,800;  425,000;    0,000;-436,80000
 321,81;   11,000; -274,000;    0,000;285,00000
 321,83;    4,200; -225,000;    0,000;229,20000
 321,84;   24,400;  207,000;    0,000;-182,60000
 321,86;   27,600;  607,000;    0,000;-579,40000
 321,88;    7,800;  172,000;    0,000;-164,20000
 321,90;   55,600;  189,000;    0,000;-133,40000
 321,92;    4,400;   99,000;    0,000;-94,60000
 321,94;   12,200;  -14,000;    0,000;26,20000
 321,96;  -16,800; -151,000;    0,000;134,20000
 321,98;   50,400;  142,000;    0,000;-91,60000
 321,99;   20,800;    2,000;    0,000;18,80000
 322,01;    3,200;  114,000;    0,000;-110,80000
 322,03;   49,200; -247,000;    0,000;296,20000
 322,05;   13,000; -281,000;    0,000;294,00000
 322,07;  -17,000;   95,000;    0,000;-112,00000
 322,09;   18,800;   -3,000;    0,000;21,80000
 322,11;    1,200; -277,000;    0,000;278,20000
 322,13;    4,000;  -25,000;    0,000;29,00000
 322,14;   -4,200;  -61,000;    0,000;56,80000
 322,16;   24,200;  -28,000;    0,000;52,20000
 322,18;  -18,800; -616,000;    0,000;597,20000
 322,20;   23,600;  -86,000;    0,000;109,60000
 322,22;   37,400;  105,000;    0,000;-67,60000
 322,24;   26,600;  772,000;    0,000;-745,40000
 322,26;   35,000;  -38,000;    0,000;73,00000
 322,28;    0,400;   24,000;    0,000;-23,60000
 322,29;   26,800;  383,000;    0,000;-356,20000
 322,31;   39,400;  157,000;    0,000;-117,60000
 322,33;   45,200; -348,000;    0,000;393,20000
 322,35;    5,400;  235,000;    0,000;-229,60000
 322,37;  -15,200;   92,000;    0,000;-107,20000
 322,39;   42,200;  354,000;    0,000;-311,80000
 322,41;  -10,600; -450,000;    0,000;439,40000
 322,43;   25,000; -280,000;    0,000;305,00000
 322,44;  -26,400;  -11,000;    0,000;-15,40000
 322,46;  -16,000;   80,000;    0,000;-96,00000
 322,48;   15,800;  -77,000;    0,000;92,80000
 322,50;   -4,200;   91,000;    0,000;-95,20000
 322,52;  -27,400;  404,000;    0,000;-431,40000
 322,54;   28,000;  131,000;    0,000;-103,00000
 322,56;   27,800; -218,000;    0,000;245,80000
 322,58;   37,600;  104,000;    0,000;-66,40000
 322,59;   -4,000; -237,000;    0,000;233,00000
 322,61;    8,800;  978,000;    0,000;-969,20000
 322,63;   22,800; -213,000;    0,000;235,80000
 322,65;    2,400;  137,000;    0,000;-134,60000
 322,67;   27,800;  126,000;    0,000;-98,20000
 322,69;   44,400;  594,000;    0,000;-549,60000
 322,71;   15,000; -243,000;    0,000;258,00000
 322,73;    9,400;    2,000;    0,000; 7,40000
 322,74;  -12,800;  274,000;    0,000;-286,80000
 322,76;   14,000;  455,000;    0,000;-441,00000
 322,78;   -9,000; -103,000;    0,000;94,00000
 322,80;  -10,000;  143,000;    0,000;-153,00000
 322,82;    7,200;  305,000;    0,000;-297,80000
 322,84;    5,200;  649,000;    0,000;-643,80000
 322,86;   10,600;   69,000;    0,000;-58,40000
 322,87;    6,000; -149,000;    0,000;155,00000
 322,89;   -8,000;  121,000;    0,000;-129,00000
 322,91;   -4,800;  477,000;    0,000;-481,80000
 322,93;   33,000; -314,000;    0,000;347,00000
 322,95;   30,800; 1423,000;    0,000;-1392,20000
 322,97;    5,600;  157,000;    0,000;-151,40000
 322,99;  -25,200;  385,000;    0,000;-410,20000
 323,01;    4,400;  224,000;    0,000;-219,60000
 323,02;  -11,200;  277,000;    0,000;-288,20000
 323,04;   -8,400;  481,000;    0,000;-489,40000
 323,06;   -9,000;  793,000;    0,000;-802,00000
 323,08;   19,400;  -10,000;    0,000;29,40000
 323,10;   22,600;  -22,000;    0,000;44,60000
 323,12;   -5,800;  816,000;    0,000;-821,80000
 323,14;   10,600;  385,000;    0,000;-374,40000
 323,15;   14,000; -334,000;    0,000;348,00000
 323,17;   14,400;  557,000;    0,000;-542,60000
 323,19;   12,400;  321,000;    0,000;-308,60000
 323,21;   -7,000;  224,000;    0,000;-231,00000
 323,23;  -14,800; -234,000;    0,000;219,20000
 323,25;    6,400; -173,000;    0,000;179,40000
 323,27;   35,800;  278,000;    0,000;-242,20000
 323,29;   10,200;  721,000;    0,000;-710,80000
 323,30;    4,800; -152,000;    0,000;156,80000
 323,32;   38,800;  699,000;    0,000;-660,20000
 323,34;    3,400;  313,000;    0,000;-309,60000
 323,36;   37,400;  349,000;    0,000;-311,60000
 323,38;   27,600;   64,000;    0,000;-36,40000
 323,40;   17,200;  314,000;    0,000;-296,80000
 323,42;    7,600;  251,000;    0,000;-243,40000
 323,43;   21,400;  179,000;    0,000;-157,60000
 323,45;  -23,600; -164,000;    0,000;140,40000
 323,47;   47,200;  644,000;    0,000;-596,80000
 323,49;   26,200;   55,000;    0,000;-28,80000
 323,51;   14,400;  696,000;    0,000;-681,60000
 323,53;   26,800;  161,000;    0,000;-134,20000
 323,55;   11,400;   74,000;    0,000;-62,60000
 323,56;   21,000;  298,000;    0,000;-277,00000
 323,58;   33,200;  576,000;    0,000;-542,80000
 323,60;    4,600;  212,000;    0,000;-207,40000
 323,62;   29,200;  599,000;    0,000;-569,80000
 323,64;  -28,000;  623,000;    0,000;-651,00000
 323,66;   27,800;  997,000;    0,000;-969,20000
 323,68;  -17,600; -264,000;    0,000;246,40000
 323,69;   30,800;  258,000;    0,000;-227,20000
 323,71;   -1,200; 1283,000;    0,000;-1284,20000
 323,73;   -3,200;  424,000;    0,000;-427,20000
 323,75;    1,600; -188,000;    0,000;189,60000
 323,77;   14,000;  528,000;    0,000;-514,00000
 323,79;  -10,800;  551,000;    0,000;-561,80000
 323,81;   58,800; 1160,000;    0,000;-1101,20000
 323,82;   33,000; -258,000;    0,000;291,00000
 323,84;   58,800;  334,000;    0,000;-275,20000
 323,86;    0,400;  892,000;    0,000;-891,60000
 323,88;   -2,600;  928,000;    0,000;-930,60000
 323,90;    8,800; -260,000;    0,000;268,80000
 323,92;   13,800;  577,000;    0,000;-563,20000
 323,94;   10,000;  335,000;    0,000;-325,00000
 323,95;   16,600;  870,000;    0,000;-853,40000
 323,97;   11,400;  220,000;    0,000;-208,60000
 323,99;   48,600;  378,000;    0,000;-329,40000
 324,01;   26,000;   60,000;    0,000;-34,00000
 324,03;   31,200;  612,000;    0,000;-580,80000
 324,05;   18,400; -115,000;    0,000;133,40000
 324,06;   34,200;  812,000;    0,000;-777,80000
 324,08;   47,600;  659,000;    0,000;-611,40000
 324,10;   18,200;  578,000;    0,000;-559,80000
 324,12;   -6,200;  398,000;    0,000;-404,20000
 324,14;   54,200;  177,000;    0,000;-122,80000
 324,16;  -10,800;  360,000;    0,000;-370,80000
 324,18;   58,200;  856,000;    0,000;-797,80000
 324,19;   38,400;  465,000;    0,000;-426,60000
 324,21;   14,200;  377,000;    0,000;-362,80000
 324,23;   42,200;  288,000;    0,000;-245,80000
 324,25;   52,200;  386,000;    0,000;-333,80000
 324,27;   18,400;  518,000;    0,000;-499,60000
 324,29;   31,400;  103,000;    0,000;-71,60000
 324,31;   15,200;  612,000;    0,000;-596,80000
 324,32;   37,200;  876,000;    0,000;-838,80000
 324,34;   29,800; -271,000;    0,000;300,80000
 324,36;   30,400;  295,000;    0,000;-264,60000
 324,38;    2,800;  745,000;    0,000;-742,20000
 324,40;   32,400;  734,000;    0,000;-701,60000
 324,42;   24,600;  -68,000;    0,000;92,60000
 324,43;   46,000;  929,000;    0,000;-883,00000
 324,45;   43,000;  261,000;    0,000;-218,00000
 324,47;   56,000;  837,000;    0,000;-781,00000
 324,49;   42,400;  357,000;    0,000;-314,60000
 324,51;   63,200;  684,000;    0,000;-620,80000
 324,53;   44,000;  664,000;    0,000;-620,00000
 324,55;   70,800;  797,000;    0,000;-726,20000
 324,56;   60,200;   12,000;    0,000;48,20000
 324,58;   80,600;  435,000;    0,000;-354,40000
 324,60;   23,400;  404,000;    0,000;-380,60000
 324,62;   56,400;  976,000;    0,000;-919,60000
 324,64;   54,000;  418,000;    0,000;-364,00000
 324,66;   76,000; 1184,000;    0,000;-1108,00000
 324,67;   55,400;  491,000;    0,000;-435,60000
 324,69;   85,800;  746,000;    0,000;-660,20000
 324,71;   68,600;   48,000;    0,000;20,60000
 324,73;   62,200;  403,000;    0,000;-340,80000
 324,75;   88,800;  378,000;    0,000;-289,20000
 324,77;   45,400; 1098,000;    0,000;-1052,60000
 324,79;   55,600;  123,000;    0,000;-67,40000
 324,80;   81,200;  396,000;    0,000;-314,80000
 324,82;   74,200;   79,000;    0,000;-4,80000
 324,84;   71,400;  575,000;    0,000;-503,60000
 324,86;  116,600;  213,000;    0,000;-96,40000
 324,88;  116,400;  564,000;    0,000;-447,60000
 324,90;   91,200;  520,000;    0,000;-428,80000
 324,91;  140,000;  594,000;    0,000;-454,00000
 324,93;  126,400;  537,000;    0,000;-410,60000
 324,95;  118,200;  367,000;    0,000;-248,80000
 324,97;   86,200;  250,000;    0,000;-163,80000
 324,99;  154,400;  238,000;    0,000;-83,60000
 325,01;  101,000;  221,000;    0,000;-120,00000
 325,02;  137,600;  733,000;    0,000;-595,40000
 325,04;  108,200;  189,000;    0,000;-80,80000
 325,06;  165,600;  425,000;    0,000;-259,40000
 325,08;  147,400;  333,000;    0,000;-185,60000
 325,10;  185,200;  369,000;    0,000;-183,80000
 325,12;  294,200;  350,000;    0,000;-55,80000
 325,13;  474,600;  807,000;    0,000;-332,40000
 325,15;  720,600;  262,000;    0,000;458,60000
 325,17;  697,800; 1127,000;    0,000;-429,20000
 325,19;  414,600;  892,000;    0,000;-477,40000
 325,21;  206,600;  567,000;    0,000;-360,40000
 325,23;  117,600;  115,000;    0,000; 2,60000
 325,25;  110,400;  427,000;    0,000;-316,60000
 325,26;  119,000;  479,000;    0,000;-360,00000
 325,28;  107,200;  688,000;    0,000;-580,80000
 325,30;   47,400;  359,000;    0,000;-311,60000
 325,32;   93,200;  364,000;    0,000;-270,80000
 325,34;   30,400;  483,000;    0,000;-452,60000
 325,36;   49,600; 1118,000;    0,000;-1068,40000
 325,37;   37,000;  110,000;    0,000;-73,00000
 325,39;   59,400;  556,000;    0,000;-496,60000
 325,41;   39,200;  434,000;    0,000;-394,80000
 325,43;   70,000;  694,000;    0,000;-624,00000
 325,45;   72,600; -251,000;    0,000;323,60000
 325,47;   70,000;  547,000;    0,000;-477,00000
 325,48;   29,400;  420,000;    0,000;-390,60000
 325,50;   62,000;  735,000;    0,000;-673,00000
 325,52;   41,000;  331,000;    0,000;-290,00000
 325,54;   80,200;  333,000;    0,000;-252,80000
 325,56;   17,400;  355,000;    0,000;-337,60000
 325,58;   93,000; 1248,000;    0,000;-1155,00000
 325,59;   66,800; 1207,000;    0,000;-1140,20000
 325,61;   45,800;  172,000;    0,000;-126,20000
 325,63;   45,000;  424,000;    0,000;-379,00000
 325,65;   80,000; 1794,000;    0,000;-1714,00000
 325,67;   84,800;  596,000;    0,000;-511,20000
 325,69;  102,200;  452,000;    0,000;-349,80000
 325,70;   71,000;  -52,000;    0,000;123,00000
 325,72;  100,400; 1728,000;    0,000;-1627,60000
 325,74;   90,400; -131,000;    0,000;221,40000
 325,76;   91,200;  714,000;    0,000;-622,80000
 325,78;  133,400;  712,000;    0,000;-578,60000
 325,79;  220,000; 1352,000;    0,000;-1132,00000
 325,81;  448,400;  702,000;    0,000;-253,60000
 325,83;  918,000; 1297,000;    0,000;-379,00000
 325,85; 1680,400;  443,000;    0,000;1237,40000
 325,87; 3139,400; 1008,000;    0,000;2131,40000
 325,89; 5361,000;  148,000;    0,000;5213,00000
 325,90; 8720,000; 1665,000;    0,000;7055,00000
 325,92;12045,000;  784,000;    0,000;11261,00000
 325,94;14789,000; 1308,000;    0,000;13481,00000
 325,96;18360,200;  116,000;    0,000;18244,20000
 325,98;27905,400;  664,000;    0,000;27241,40000
 326,00;46034,600;  554,000;    0,000;45480,60000
 326,01;63120,200; 1364,000;    0,000;61756,20000
 326,03;54913,200;  318,000;    0,000;54595,20000
 326,05;26874,600;  486,000;    0,000;26388,60000
 326,07;11455,400;  570,000;    0,000;10885,40000
 326,09; 5015,400; 1289,000;    0,000;3726,40000
 326,11; 2883,400;  896,000;    0,000;1987,40000
 326,12; 1831,400; 1057,000;    0,000;774,40000
 326,14;  927,000;  407,000;    0,000;520,00000
 326,16;  635,600; 1699,000;    0,000;-1063,40000
 326,18;  480,200;  786,000;    0,000;-305,80000
 326,20;  454,600;  390,000;    0,000;64,60000
 326,21;  340,800;  558,000;    0,000;-217,20000
 326,23;  334,400;  700,000;    0,000;-365,60000
 326,25;  241,200; -143,000;    0,000;384,20000
 326,27;  276,400;  599,000;    0,000;-322,60000
 326,29;  246,600;  409,000;    0,000;-162,40000
 326,31;  231,800;  969,000;    0,000;-737,20000
 326,32;  188,400;  198,000;    0,000;-9,60000
 326,34;  233,800;  869,000;    0,000;-635,20000
 326,36;  193,800;  933,000;    0,000;-739,20000
 326,38;  212,600; 1377,000;    0,000;-1164,40000
 326,40;  181,200;   76,000;    0,000;105,20000
 326,42;  140,200;  605,000;    0,000;-464,80000
 326,43;  169,000;  648,000;    0,000;-479,00000
 326,45;  182,200; 1257,000;    0,000;-1074,80000
 326,47;  142,400; -128,000;    0,000;270,40000
 326,49;  157,600; 1102,000;    0,000;-944,40000
 326,51;  164,400;  676,000;    0,000;-511,60000
 326,52;  129,000;  970,000;    0,000;-841,00000
 326,54;  106,400;  262,000;    0,000;-155,60000
 326,56;  179,600;  786,000;    0,000;-606,40000
 326,58;  142,000;  651,000;    0,000;-509,00000
 326,60;  153,800; 1006,000;    0,000;-852,20000
 326,62;  119,600;   -3,000;    0,000;122,60000
 326,63;  123,600;  375,000;    0,000;-251,40000
 326,65;  108,600;  565,000;    0,000;-456,40000
 326,67;   80,600;  972,000;    0,000;-891,40000
 326,69;  126,600;  475,000;    0,000;-348,40000
 326,71;  125,600;  631,000;    0,000;-505,40000
 326,72;  125,600;  829,000;    0,000;-703,40000
 326,74;  168,200;  775,000;    0,000;-606,80000
 326,76;  143,600;  508,000;    0,000;-364,40000
 326,78;  132,400;  318,000;    0,000;-185,60000
 326,80;   92,200;  573,000;    0,000;-480,80000
 326,82;  125,800;  379,000;    0,000;-253,20000
 326,83;   74,000; -171,000;    0,000;245,00000
 326,85;  140,400;  212,000;    0,000;-71,60000
 326,87;   86,600;  369,000;    0,000;-282,40000
 326,89;  101,600;  891,000;    0,000;-789,40000
 326,91;  103,800;  209,000;    0,000;-105,20000
 326,92;  126,800;  235,000;    0,000;-108,20000
 326,94;  125,200;  346,000;    0,000;-220,80000
 326,96;  140,600;  307,000;    0,000;-166,40000
 326,98;  133,800;   11,000;    0,000;122,80000
 327,00;  107,200;  477,000;    0,000;-369,80000
 327,01;   90,800;  821,000;    0,000;-730,20000
 327,03;   80,200; 1435,000;    0,000;-1354,80000
 327,05;   78,800;  209,000;    0,000;-130,20000
 327,07;   78,800;  222,000;    0,000;-143,20000
 327,09;   88,200;  608,000;    0,000;-519,80000
 327,11;   94,000;  633,000;    0,000;-539,00000
 327,12;   91,000;   63,000;    0,000;28,00000
 327,14;  115,000;  735,000;    0,000;-620,00000
 327,16;   75,200; 1163,000;    0,000;-1087,80000
 327,18;  101,400; 1512,000;    0,000;-1410,60000
 327,20;  130,000;  190,000;    0,000;-60,00000
 327,21;  141,600;  366,000;    0,000;-224,40000
 327,23;  149,600;  149,000;    0,000; 0,60000
 327,25;  136,000; 1258,000;    0,000;-1122,00000
 327,27;  133,200; -158,000;    0,000;291,20000
 327,29;  109,800;  333,000;    0,000;-223,20000
 327,30;   58,600;  679,000;    0,000;-620,40000
 327,32;   63,600;  693,000;    0,000;-629,40000
 327,34;   92,800; 1185,000;    0,000;-1092,20000
 327,36;   98,200; 1169,000;    0,000;-1070,80000
 327,38;   67,800;  152,000;    0,000;-84,20000
 327,39;   87,000; 1134,000;    0,000;-1047,00000
 327,41;   40,600;  486,000;    0,000;-445,40000
 327,43;   66,600;  563,000;    0,000;-496,40000
 327,45;   35,600;  696,000;    0,000;-660,40000
 327,47;   77,400;  756,000;    0,000;-678,60000
 327,49;   47,600;  891,000;    0,000;-843,40000
 327,50;   59,000;   23,000;    0,000;36,00000
 327,52;   50,200;  243,000;    0,000;-192,80000
 327,54;   81,000;  338,000;    0,000;-257,00000
 327,56;   24,000;  -38,000;    0,000;62,00000
 327,58;   52,200;  -72,000;    0,000;124,20000
 327,59;   19,000; 1361,000;    0,000;-1342,00000
 327,61;   19,000;  334,000;    0,000;-315,00000
 327,63;   29,000; 1079,000;    0,000;-1050,00000
 327,65;   32,200; 1089,000;    0,000;-1056,80000
 327,67;    3,600;  542,000;    0,000;-538,40000
 327,68;   44,400;  663,000;    0,000;-618,60000
 327,70;    9,800;  -53,000;    0,000;62,80000
 327,72;   23,000;  518,000;    0,000;-495,00000
 327,74;   10,200;  740,000;    0,000;-729,80000
 327,76;   25,800;  841,000;    0,000;-815,20000
 327,77;   -2,600;  105,000;    0,000;-107,60000
 327,79;   27,200;  212,000;    0,000;-184,80000
 327,81;   29,200;  275,000;    0,000;-245,80000
 327,83;   22,600;  902,000;    0,000;-879,40000
 327,85;   -9,800; -488,000;    0,000;478,20000
 327,86;   23,400;  543,000;    0,000;-519,60000
 327,88;   23,400;  796,000;    0,000;-772,60000
 327,90;   34,000;  534,000;    0,000;-500,00000
 327,92;   39,200;  449,000;    0,000;-409,80000
 327,94;   20,400;  118,000;    0,000;-97,60000
 327,95;   31,000;  241,000;    0,000;-210,00000
 327,97;   38,200;  792,000;    0,000;-753,80000
 327,99;  -15,600;  -11,000;    0,000;-4,60000
 328,01;   38,400;  577,000;    0,000;-538,60000
 328,03;    8,400;  377,000;    0,000;-368,60000
 328,04;   14,200;  423,000;    0,000;-408,80000
 328,06;   23,000;  -74,000;    0,000;97,00000
 328,08;   -4,000;  523,000;    0,000;-527,00000
 328,10;   -4,800;  430,000;    0,000;-434,80000
 328,12;   26,400;  397,000;    0,000;-370,60000
 328,13;  -10,200; -177,000;    0,000;166,80000
 328,15;   22,600;   61,000;    0,000;-38,40000
 328,17;    6,000;  141,000;    0,000;-135,00000
 328,19;    1,600;  381,000;    0,000;-379,40000
 328,21;   20,600; -294,000;    0,000;314,60000
 328,22;   13,000;  892,000;    0,000;-879,00000
 328,24;   10,200;  222,000;    0,000;-211,80000
 328,26;   11,600;  815,000;    0,000;-803,40000
 328,28;   12,400;   60,000;    0,000;-47,60000
 328,30;   30,800;  119,000;    0,000;-88,20000
 328,31;    9,800;  114,000;    0,000;-104,20000
 328,33;   14,000;  787,000;    0,000;-773,00000
 328,35;   27,800; -303,000;    0,000;330,80000
 328,37;   10,000;  278,000;    0,000;-268,00000
 328,39;   34,000;  621,000;    0,000;-587,00000
 328,40;   22,400;  247,000;    0,000;-224,60000
 328,42;  -13,800; -397,000;    0,000;383,20000
 328,44;   -3,600; -107,000;    0,000;103,40000
 328,46;    3,800;  255,000;    0,000;-251,20000
 328,47;   33,400;  537,000;    0,000;-503,60000
 328,49;    6,200; -303,000;    0,000;309,20000
 328,51;   23,200;  226,000;    0,000;-202,80000
 328,53;   -3,400;  272,000;    0,000;-275,40000
 328,55;  -22,400;  146,000;    0,000;-168,40000
 328,56;   28,400; -188,000;    0,000;216,40000
 328,58;  -12,800; -391,000;    0,000;378,20000
 328,60;   -0,400;  135,000;    0,000;-135,40000
 328,62;   15,600;  654,000;    0,000;-638,40000
 328,64;   32,600;  247,000;    0,000;-214,40000
 328,65;   34,800;  112,000;    0,000;-77,20000
 328,67;   32,600;  406,000;    0,000;-373,40000
 328,69;  -11,200;  -88,000;    0,000;76,80000
 328,71;    9,400;    1,000;    0,000; 8,40000
 328,73;    5,400;  -98,000;    0,000;103,40000
 328,74;   33,800;   54,000;    0,000;-20,20000
 328,76;   43,200;  301,000;    0,000;-257,80000
 328,78;   14,000; -242,000;    0,000;256,00000
 328,80;   30,000;  -63,000;    0,000;93,00000
 328,81;   22,200;  435,000;    0,000;-412,80000
 328,83;   23,800;  207,000;    0,000;-183,20000
 328,85;   22,600;  -80,000;    0,000;102,60000
 328,87;   46,600; -211,000;    0,000;257,60000
 328,89;    3,000;  -84,000;    0,000;87,00000
 328,90;    4,400;    6,000;    0,000;-1,60000
 328,92;   -3,200;  205,000;    0,000;-208,20000
 328,94;   32,800;   16,000;    0,000;16,80000
 328,96;    3,600;   40,000;    0,000;-36,40000
 328,98;   34,400;  184,000;    0,000;-149,60000
 328,99;   16,000; -145,000;    0,000;161,00000
 329,01;   15,400; -289,000;    0,000;304,40000
 329,03;  -12,600; -138,000;    0,000;125,40000
 329,05;    0,600;  212,000;    0,000;-211,40000
 329,06;   -9,000; -154,000;    0,000;145,00000
 329,08;  -15,200;  160,000;    0,000;-175,20000
 329,10;    7,800; -305,000;    0,000;312,80000
 329,12;   -3,800;  341,000;    0,000;-344,80000
 329,14;    1,000; -408,000;    0,000;409,00000
 329,15;  -15,200; -361,000;    0,000;345,80000
 329,17;   22,200;  378,000;    0,000;-355,80000
 329,19;   11,200;    2,000;    0,000; 9,20000
 329,21;  -20,200; -326,000;    0,000;305,80000
 329,23;   59,600; 1120,000;    0,000;-1060,40000
 329,24;  -15,800;  -83,000;    0,000;67,20000
 329,26;   23,000;  281,000;    0,000;-258,00000
 329,28;  -26,000;  -69,000;    0,000;43,00000
 329,30;   30,000; -421,000;    0,000;451,00000
 329,31;  -15,000;  -32,000;    0,000;17,00000
 329,33;   50,400;  289,000;    0,000;-238,60000
 329,35;    1,200; -440,000;    0,000;441,20000
 329,37;    3,800;  -78,000;    0,000;81,80000
 329,39;   25,600;  261,000;    0,000;-235,40000
 329,40;   10,800;  386,000;    0,000;-375,20000
 329,42;  -25,400;   40,000;    0,000;-65,40000
 329,44;  -11,600; -176,000;    0,000;164,40000
 329,46;  -37,200;    5,000;    0,000;-42,20000
 329,47;   -4,000;  415,000;    0,000;-419,00000
 329,49;  -19,200; -115,000;    0,000;95,80000
 329,51;  -15,000; -158,000;    0,000;143,00000
 329,53;   27,000; -130,000;    0,000;157,00000
 329,55;   20,400;  219,000;    0,000;-198,60000
 329,56;   16,000; -705,000;    0,000;721,00000
 329,58;   36,400; -433,000;    0,000;469,40000
 329,60;   16,600;  237,000;    0,000;-220,40000
 329,62;   20,400;  635,000;    0,000;-614,60000
 329,63;  -15,800; -415,000;    0,000;399,20000
 329,65;   14,200; -166,000;    0,000;180,20000
 329,67;  -17,200;  -19,000;    0,000; 1,80000
 329,69;   40,000;  245,000;    0,000;-205,00000
 329,71;   -4,000; -439,000;    0,000;435,00000
 329,72;   16,200; -115,000;    0,000;131,20000
 329,74;    2,000;   -9,000;    0,000;11,00000
 329,76;  -10,600;   71,000;    0,000;-81,60000
 329,78;    8,000; -364,000;    0,000;372,00000
 329,79;   39,400;  -89,000;    0,000;128,40000
 329,81;   42,000;  548,000;    0,000;-506,00000
 329,83;   17,000;   34,000;    0,000;-17,00000
 329,85;   28,400; -331,000;    0,000;359,40000
 329,87;    1,600;  118,000;    0,000;-116,40000
 329,88;  -19,200;  -37,000;    0,000;17,80000
 329,90;   12,800;  608,000;    0,000;-595,20000
 329,92;  -14,200; -391,000;    0,000;376,80000
 329,94;    4,600; -275,000;    0,000;279,60000
 329,95;   -8,200; -201,000;    0,000;192,80000
 329,97;   12,000;   52,000;    0,000;-40,00000
 329,99;  -26,600;   54,000;    0,000;-80,60000
 330,01;   43,400; -117,000;    0,000;160,40000
 330,02;  -11,000; -218,000;    0,000;207,00000
 330,04;  -12,600; -164,000;    0,000;151,40000
 330,06;  -12,400; -310,000;    0,000;297,60000
 330,08;  -15,200; -365,000;    0,000;349,80000
 330,10;  -39,400;  -43,000;    0,000; 3,60000
 330,11;   35,200;  119,000;    0,000;-83,80000
 330,13;   16,800; -198,000;    0,000;214,80000
 330,15;   57,600; -135,000;    0,000;192,60000
 330,17;   -7,800; -275,000;    0,000;267,20000
 330,18;  -26,000;  207,000;    0,000;-233,00000
 330,20;    4,600; -645,000;    0,000;649,60000
 330,22;   22,400;  -77,000;    0,000;99,40000
 330,24;   -6,600; -102,000;    0,000;95,40000
 330,25;   31,000;   31,000;    0,000; 0,00000
 330,27;   -7,400; -537,000;    0,000;529,60000
 330,29;    7,000; -370,000;    0,000;377,00000
 330,31;   -7,800; -267,000;    0,000;259,20000
 330,33;   30,400;  509,000;    0,000;-478,60000
 330,34;    7,400; -583,000;    0,000;590,40000
 330,36;    5,200; -438,000;    0,000;443,20000
 330,38;  -33,600;  299,000;    0,000;-332,60000
 330,40;   65,000;  495,000;    0,000;-430,00000
 330,41;  -10,600; -404,000;    0,000;393,40000
 330,43;   -8,600; -409,000;    0,000;400,40000
 330,45;   15,400; -119,000;    0,000;134,40000
 330,47;   -8,800;  160,000;    0,000;-168,80000
 330,48;   -3,200; -477,000;    0,000;473,80000
 330,50;   27,000;  116,000;    0,000;-89,00000
 330,52;  -14,400; -239,000;    0,000;224,60000
 330,54;   29,600;  107,000;    0,000;-77,40000
 330,56;   10,600; -234,000;    0,000;244,60000
 330,57;    6,600; -176,000;    0,000;182,60000
 330,59;   17,800;  154,000;    0,000;-136,20000
 330,61;   -3,200;  245,000;    0,000;-248,20000
 330,63;  -12,200; -375,000;    0,000;362,80000
 330,64;   12,600; -277,000;    0,000;289,60000
 330,66;   23,800;  108,000;    0,000;-84,20000
 330,68;   -3,000;  -59,000;    0,000;56,00000
 330,70;   11,600; -506,000;    0,000;517,60000
 330,71;   34,800; -343,000;    0,000;377,80000
 330,73;   -2,000; -195,000;    0,000;193,00000
 330,75;   -5,600;    8,000;    0,000;-13,60000
 330,77;    1,600; -530,000;    0,000;531,60000
 330,78;   15,400; -387,000;    0,000;402,40000
 330,80;    8,200; -388,000;    0,000;396,20000
 330,82;    5,200;  595,000;    0,000;-589,80000
 330,84;   -1,200; -510,000;    0,000;508,80000
 330,85;   21,600;  129,000;    0,000;-107,40000
 330,87;   -2,600;   52,000;    0,000;-54,60000
 330,89;   24,200; -266,000;    0,000;290,20000
 330,91;    0,800; -413,000;    0,000;413,80000
 330,92;   11,000;   11,000;    0,000; 0,00000
 330,94;  -31,600; -380,000;    0,000;348,40000
 330,96;   25,200;  -66,000;    0,000;91,20000
 330,98;  -17,000; -339,000;    0,000;322,00000
 331,00;    4,000; -138,000;    0,000;142,00000
 331,01;    3,600; -237,000;    0,000;240,60000
 331,03;  -13,000;  152,000;    0,000;-165,00000
 331,05;    7,000; -323,000;    0,000;330,00000
 331,07;   41,400;  143,000;    0,000;-101,60000
 331,08;    7,400;  -83,000;    0,000;90,40000
 331,10;   22,000; -176,000;    0,000;198,00000
 331,12;   -8,200; -304,000;    0,000;295,80000
 331,14;   13,800; -341,000;    0,000;354,80000
 331,15;  -35,600;  287,000;    0,000;-322,60000
 331,17;   24,000;  387,000;    0,000;-363,00000
 331,19;  -20,200; -602,000;    0,000;581,80000
 331,21;   19,000; -196,000;    0,000;215,00000
 331,22;    6,600; -313,000;    0,000;319,60000
 331,24;    8,800;  224,000;    0,000;-215,20000
 331,26;   17,000; -469,000;    0,000;486,00000
 331,28;   31,600; -459,000;    0,000;490,60000
 331,29;   38,000; -198,000;    0,000;236,00000
 331,31;    8,600;  310,000;    0,000;-301,40000
 331,33;  -14,600; -460,000;    0,000;445,40000
 331,35;   37,400; -522,000;    0,000;559,40000
 331,36;   -5,600; -230,000;    0,000;224,40000
 331,38;   53,400;  475,000;    0,000;-421,60000
 331,40;   45,200; -325,000;    0,000;370,20000
 331,42;   10,200;    6,000;    0,000; 4,20000
 331,43;  -34,600;  137,000;    0,000;-171,60000
 331,45;   24,400;  627,000;    0,000;-602,60000
 331,47;  -40,000; -185,000;    0,000;145,00000
 331,49;   26,800;  206,000;    0,000;-179,20000
 331,50;  -25,600; -333,000;    0,000;307,40000
 331,52;  -11,000;   93,000;    0,000;-104,00000
 331,54;  -13,600; -511,000;    0,000;497,40000
 331,56;   -1,200; -374,000;    0,000;372,80000
 331,57;   -4,400; -155,000;    0,000;150,60000
 331,59;   -2,000;  248,000;    0,000;-250,00000
 331,61;  -17,000; -408,000;    0,000;391,00000
 331,63;   29,200; -313,000;    0,000;342,20000
 331,64;   11,600;  -23,000;    0,000;34,60000
 331,66;    5,200;   69,000;    0,000;-63,80000
 331,68;    2,000; -196,000;    0,000;198,00000
 331,70;   -0,200; -250,000;    0,000;249,80000
 331,71;  -13,400;  -91,000;    0,000;77,60000
 331,73;   22,000;  -35,000;    0,000;57,00000
 331,75;   33,400; -410,000;    0,000;443,40000
 331,77;   54,600; -298,000;    0,000;352,60000
 331,78;   35,000; -153,000;    0,000;188,00000
 331,80;   34,000;  249,000;    0,000;-215,00000
 331,82;  -10,800; -242,000;    0,000;231,20000
 331,84;    0,200; -361,000;    0,000;361,20000
 331,85;  -25,400; -169,000;    0,000;143,60000
 331,87;   -4,000;    0,000;    0,000;-4,00000
 331,89;  -16,000; -184,000;    0,000;168,00000
 331,91;    8,000; -355,000;    0,000;363,00000
 331,92;  -29,200;  -11,000;    0,000;-18,20000
 331,94;   -6,200;  -66,000;    0,000;59,80000
 331,96;    0,600; -544,000;    0,000;544,60000
 331,98;   40,200; -198,000;    0,000;238,20000
 331,99;   -5,000; -140,000;    0,000;135,00000
 332,01;  -17,800;  297,000;    0,000;-314,80000
 332,03;   30,400;  395,000;    0,000;-364,60000
 332,04;   21,600; -192,000;    0,000;213,60000
 332,06;  -36,400; -357,000;    0,000;320,60000
 332,08;   -3,600;   32,000;    0,000;-35,60000
 332,10;   29,000; -540,000;    0,000;569,00000
 332,11;   29,400; -212,000;    0,000;241,40000
 332,13;   42,800;  178,000;    0,000;-135,20000
 332,15;  -41,400;   36,000;    0,000;-77,40000
 332,17;  -16,600; -650,000;    0,000;633,40000
 332,18;   32,800; -202,000;    0,000;234,80000
 332,20;   -0,200; -190,000;    0,000;189,80000
 332,22;   34,600;  371,000;    0,000;-336,40000
 332,24;  -10,600; -310,000;    0,000;299,40000
 332,25;    4,200; -521,000;    0,000;525,20000
 332,27;  -11,000;   27,000;    0,000;-38,00000
 332,29;   -1,200; -263,000;    0,000;261,80000
 332,31;   16,800; -233,000;    0,000;249,80000
 332,32;   39,600;  323,000;    0,000;-283,40000
 332,34;   -8,600;    1,000;    0,000;-9,60000
 332,36;  -16,400;  -32,000;    0,000;15,60000
 332,38;   -6,000; -300,000;    0,000;294,00000
 332,39;   -6,200; -552,000;    0,000;545,80000
 332,41;   -2,600;  367,000;    0,000;-369,60000
 332,43;    6,800;  517,000;    0,000;-510,20000
 332,45;  -21,400; -822,000;    0,000;800,60000
 332,46;    5,800; -320,000;    0,000;325,80000
 332,48;  -36,600; -154,000;    0,000;117,40000
 332,50;   10,800;  -56,000;    0,000;66,80000
 332,51;  -18,000; -568,000;    0,000;550,00000
 332,53;  -15,800; -343,000;    0,000;327,20000
 332,55;  -14,000; -200,000;    0,000;186,00000
 332,57;    3,800; -171,000;    0,000;174,80000
 332,58;    2,400; -512,000;    0,000;514,40000
 332,60;   17,800; -228,000;    0,000;245,80000
 332,62;  -20,600; -274,000;    0,000;253,40000
 332,64;   25,800;  468,000;    0,000;-442,20000
 332,65;  -27,600; -444,000;    0,000;416,40000
 332,67;    4,800;  290,000;    0,000;-285,20000
 332,69;    0,200;  272,000;    0,000;-271,80000
 332,71;   -9,200;  351,000;    0,000;-360,20000
 332,72;    0,200; -680,000;    0,000;680,20000
 332,74;    5,400; -540,000;    0,000;545,40000
 332,76;    7,600; -245,000;    0,000;252,60000
 332,77;    4,600;  430,000;    0,000;-425,40000
 332,79;  -35,400; -719,000;    0,000;683,60000
 332,81;   -1,000; -336,000;    0,000;335,00000
 332,83;  -18,800; -344,000;    0,000;325,20000
 332,84;    6,600;   20,000;    0,000;-13,40000
 332,86;   14,600; -425,000;    0,000;439,60000
 332,88;   -1,600; -457,000;    0,000;455,40000
 332,90;  -12,600; -206,000;    0,000;193,40000
 332,91;   27,800;  670,000;    0,000;-642,20000
 332,93;   -8,800; -570,000;    0,000;561,20000
 332,95;  -10,400; -136,000;    0,000;125,60000
 332,96;   -4,600;  -71,000;    0,000;66,40000
 332,98;   23,600;  457,000;    0,000;-433,40000
 333,00;  -41,200; -137,000;    0,000;95,80000
 333,02;   50,800; -363,000;    0,000;413,80000
 333,03;  -12,200;  -66,000;    0,000;53,80000
 333,05;   14,000;  157,000;    0,000;-143,00000
 333,07;  -10,000; -638,000;    0,000;628,00000
 333,09;    0,200; -142,000;    0,000;142,20000
 333,10;    9,400;   36,000;    0,000;-26,60000
 333,12;   35,000;  205,000;    0,000;-170,00000
 333,14;   -2,000; -976,000;    0,000;974,00000
 333,15;   34,200; -329,000;    0,000;363,20000
 333,17;  -31,600; -181,000;    0,000;149,40000
 333,19;    7,600;  100,000;    0,000;-92,40000
 333,21;    7,800;    0,000;    0,000; 7,80000
 333,22;   47,000; -330,000;    0,000;377,00000
 333,24;   16,800; -211,000;    0,000;227,80000
 333,26;   46,600;  506,000;    0,000;-459,40000
 333,28;  -22,000; -128,000;    0,000;106,00000
 333,29;  -12,200; -634,000;    0,000;621,80000
 333,31;  -21,600; -195,000;    0,000;173,40000
 333,33;   13,200;  -65,000;    0,000;78,20000
 333,34;  -36,400; -483,000;    0,000;446,60000
 333,36;   24,200; -142,000;    0,000;166,20000
 333,38;  -26,800; -307,000;    0,000;280,20000
 333,40;   11,200;   71,000;    0,000;-59,80000
 333,41;  -13,800; -741,000;    0,000;727,20000
 333,43;   13,800; -503,000;    0,000;516,80000
 333,45;   -9,600; -245,000;    0,000;235,40000
 333,47;   10,600;  -79,000;    0,000;89,60000
 333,48;   -4,600; -331,000;    0,000;326,40000
 333,50;    6,400;   98,000;    0,000;-91,60000
 333,52;   37,800; -244,000;    0,000;281,80000
 333,53;  -17,800;  422,000;    0,000;-439,80000
 333,55;   -6,200; -130,000;    0,000;123,80000
 333,57;    2,600; -299,000;    0,000;301,60000
 333,59;   18,800;  -21,000;    0,000;39,80000
 333,60;   36,000;  170,000;    0,000;-134,00000
 333,62;  -16,000; -505,000;    0,000;489,00000
 333,64;   41,800; -277,000;    0,000;318,80000
 333,65;   -3,000; -108,000;    0,000;105,00000
 333,67;    5,200;  180,000;    0,000;-174,80000
 333,69;   -8,200;  -67,000;    0,000;58,80000
 333,71;  -31,800; -354,000;    0,000;322,20000
 333,72;   -3,000; -551,000;    0,000;548,00000
 333,74;    2,800;   52,000;    0,000;-49,20000
 333,76;    4,800; -682,000;    0,000;686,80000
 333,77;   10,200; -463,000;    0,000;473,20000
 333,79;  -28,800; -309,000;    0,000;280,20000
 333,81;   -0,400;  403,000;    0,000;-403,40000
 333,83;    7,600; -504,000;    0,000;511,60000
 333,84;   15,000;  -43,000;    0,000;58,00000
 333,86;   28,800; -360,000;    0,000;388,80000
 333,88;   15,400;  -54,000;    0,000;69,40000
 333,89;   -4,000; -603,000;    0,000;599,00000
 333,91;   27,800; -608,000;    0,000;635,80000
 333,93;    3,000;  166,000;    0,000;-163,00000
 333,95;   13,400;  416,000;    0,000;-402,60000
 333,96;   10,200; -429,000;    0,000;439,20000
 333,98;  -18,000; -371,000;    0,000;353,00000
 334,00;  -14,200; -134,000;    0,000;119,80000
 334,01;    8,800;  419,000;    0,000;-410,20000
 334,03;  -13,800; -268,000;    0,000;254,20000
 334,05;  -15,000; -196,000;    0,000;181,00000
 334,07;   23,600;    6,000;    0,000;17,60000
 334,08;   19,000;   91,000;    0,000;-72,00000
 334,10;  -25,400; -613,000;    0,000;587,60000
 334,12;   28,800; -218,000;    0,000;246,80000
 334,13;  -15,400;   -2,000;    0,000;-13,40000
 334,15;    9,400;  147,000;    0,000;-137,60000
 334,17;    0,000; -299,000;    0,000;299,00000
 334,19;   26,600; -192,000;    0,000;218,60000
 334,20;   -4,200;  185,000;    0,000;-189,20000
 334,22;    7,600;  -79,000;    0,000;86,60000
 334,24;   -7,200; -289,000;    0,000;281,80000
 334,25;   30,400; -389,000;    0,000;419,40000
 334,27;   -1,800;   12,000;    0,000;-13,80000
 334,29;   21,600;  437,000;    0,000;-415,40000
 334,31;   -0,800; -502,000;    0,000;501,20000
 334,32;  -30,000; -258,000;    0,000;228,00000
 334,34;   -4,000; -311,000;    0,000;307,00000
 334,36;   -3,200;  390,000;    0,000;-393,20000
 334,37;   -1,200;  -72,000;    0,000;70,80000
 334,39;   20,800;  271,000;    0,000;-250,20000
 334,41;  -32,200;  -35,000;    0,000; 2,80000
 334,43;   35,400;   91,000;    0,000;-55,60000
 334,44;   12,000; -391,000;    0,000;403,00000
 334,46;  -38,200;   54,000;    0,000;-92,20000
 334,48;   16,000;   89,000;    0,000;-73,00000
 334,49;   15,000;   53,000;    0,000;-38,00000
 334,51;  -26,000; -639,000;    0,000;613,00000
 334,53;   -6,600; -585,000;    0,000;578,40000
 334,54;   11,200;   97,000;    0,000;-85,80000
 334,56;    3,400;   -9,000;    0,000;12,40000
 334,58;   26,800; -474,000;    0,000;500,80000
 334,60;   16,600; -305,000;    0,000;321,60000
 334,61;  -35,400; -267,000;    0,000;231,60000
 334,63;   32,000;  261,000;    0,000;-229,00000
 334,65;    7,000;  -87,000;    0,000;94,00000
 334,66;   19,000;  -67,000;    0,000;86,00000
 334,68;  -18,800; -379,000;    0,000;360,20000
 334,70;  -21,600;   99,000;    0,000;-120,60000
 334,72;  -12,000; -284,000;    0,000;272,00000
 334,73;   15,800; -459,000;    0,000;474,80000
 334,75;  -12,800;   28,000;    0,000;-40,80000
 334,77;   -2,200;  313,000;    0,000;-315,20000
 334,78;   17,000; -731,000;    0,000;748,00000
 334,80;   14,000; -226,000;    0,000;240,00000
 334,82;    6,800;   74,000;    0,000;-67,20000
 334,83;   37,400;  316,000;    0,000;-278,60000
 334,85;   -7,800; -694,000;    0,000;686,20000
 334,87;    0,000; -513,000;    0,000;513,00000
 334,89;  -14,600; -191,000;    0,000;176,40000
 334,90;   32,800;   33,000;    0,000;-0,20000
 334,92;  -21,400; -584,000;    0,000;562,60000
 334,94;   42,000; -415,000;    0,000;457,00000
 334,95;  -20,600;   17,000;    0,000;-37,60000
 334,97;    5,200;  253,000;    0,000;-247,80000
 334,99;  -27,600; -398,000;    0,000;370,40000
 335,00;   22,200; -386,000;    0,000;408,20000
 335,02;    3,600;  130,000;    0,000;-126,40000
 335,04;   52,200;  183,000;    0,000;-130,80000
 335,06;   43,200; -668,000;    0,000;711,20000
 335,07;    4,000; -543,000;    0,000;547,00000
 335,09;   -8,600;  217,000;    0,000;-225,60000
 335,11;   14,000;  379,000;    0,000;-365,00000
 335,12;   10,400; -357,000;    0,000;367,40000
 335,14;  -31,600; -412,000;    0,000;380,40000
 335,16;    6,000;  168,000;    0,000;-162,00000
 335,17;   13,800; -385,000;    0,000;398,80000
 335,19;   18,600; -177,000;    0,000;195,60000
 335,21;   12,600; -330,000;    0,000;342,60000
 335,23;   22,600;  162,000;    0,000;-139,40000
 335,24;  -37,000; -176,000;    0,000;139,00000
 335,26;   20,000; -713,000;    0,000;733,00000
 335,28;   20,800; -390,000;    0,000;410,80000
 335,29;  -27,000; -237,000;    0,000;210,00000
 335,31;   20,800;   43,000;    0,000;-22,20000
 335,33;   24,200; -428,000;    0,000;452,20000
 335,34;   13,600; -104,000;    0,000;117,60000
 335,36;    8,400;  103,000;    0,000;-94,60000
 335,38;   29,000;  472,000;    0,000;-443,00000
 335,39;  -28,400;  611,000;    0,000;-639,40000
 335,41;    8,800; -432,000;    0,000;440,80000
 335,43;   15,800; -360,000;    0,000;375,80000
 335,45;   10,200;  -34,000;    0,000;44,20000
 335,46;   31,200; -558,000;    0,000;589,20000
 335,48;   -3,000;  202,000;    0,000;-205,00000
 335,50;  -32,000;  -98,000;    0,000;66,00000
 335,51;  -12,400;  -34,000;    0,000;21,60000
 335,53;    2,000; -741,000;    0,000;743,00000
 335,55;   -2,800; -441,000;    0,000;438,20000
 335,56;   22,600;  -75,000;    0,000;97,60000
 335,58;  -17,200;  131,000;    0,000;-148,20000
 335,60;  -13,600; -507,000;    0,000;493,40000
 335,61;   12,200; -464,000;    0,000;476,20000
 335,63;    1,400;  291,000;    0,000;-289,60000
 335,65;   14,000;   73,000;    0,000;-59,00000
 335,67;   21,600; -639,000;    0,000;660,60000
 335,68;   23,000; -345,000;    0,000;368,00000
 335,70;   17,800;  372,000;    0,000;-354,20000
 335,72;   13,600;  296,000;    0,000;-282,40000
 335,73;   12,000; -132,000;    0,000;144,00000
 335,75;   -1,800; -387,000;    0,000;385,20000
 335,77;   35,600;  -59,000;    0,000;94,60000
 335,78;   -3,000;  400,000;    0,000;-403,00000
 335,80;    0,000; -742,000;    0,000;742,00000
 335,82;   38,000; -486,000;    0,000;524,00000
 335,83;  -63,600;  108,000;    0,000;-171,60000
 335,85;   26,200;  271,000;    0,000;-244,80000
 335,87;  -18,200; -514,000;    0,000;495,80000
 335,88;    6,600; -339,000;    0,000;345,60000
 335,90;  -33,000;  335,000;    0,000;-368,00000
 335,92;  -23,400;   56,000;    0,000;-79,40000
 335,93;   11,400; -491,000;    0,000;502,40000
 335,95;   -6,600; -349,000;    0,000;342,40000
 335,97;   18,800;    2,000;    0,000;16,80000
 335,99;   43,000;  350,000;    0,000;-307,00000
 336,00;   10,600; -652,000;    0,000;662,60000
 336,02;   18,200; -381,000;    0,000;399,20000
 336,04;  -11,800;   67,000;    0,000;-78,80000
 336,05;   13,800;  323,000;    0,000;-309,20000
 336,07;   11,800; -871,000;    0,000;882,80000
 336,09;   28,200; -526,000;    0,000;554,20000
 336,10;   -5,000;  -73,000;    0,000;68,00000
 336,12;    4,600;  104,000;    0,000;-99,40000
 336,14;   -3,600; -929,000;    0,000;925,40000
 336,15;  -10,400; -635,000;    0,000;624,60000
 336,17;   -0,200; -293,000;    0,000;292,80000
 336,19;   -3,000;  372,000;    0,000;-375,00000
 336,20;   25,400; -410,000;    0,000;435,40000
 336,22;   58,800; -224,000;    0,000;282,80000
 336,24;  -10,600;  286,000;    0,000;-296,60000
 336,25;   -2,400; -204,000;    0,000;201,60000
 336,27;  -10,000; -616,000;    0,000;606,00000
 336,29;   31,000; -309,000;    0,000;340,00000
 336,30;   15,600;  132,000;    0,000;-116,40000
 336,32;   -1,400;   51,000;    0,000;-52,40000
 336,34;  -11,400; -596,000;    0,000;584,60000
 336,36;   16,200; -512,000;    0,000;528,20000
 336,37;  -11,600; -305,000;    0,000;293,40000
 336,39;    2,800;   32,000;    0,000;-29,20000
 336,41;  -34,000; -593,000;    0,000;559,00000
 336,42;    5,800; -618,000;    0,000;623,80000
 336,44;   -6,400; -226,000;    0,000;219,60000
 336,46;   42,200;  466,000;    0,000;-423,80000
 336,47;    8,400; -668,000;    0,000;676,40000
 336,49;  -35,800; -370,000;    0,000;334,20000
 336,51;   17,400;  -17,000;    0,000;34,40000
 336,52;  -20,000;  177,000;    0,000;-197,00000
 336,54;    0,000; -411,000;    0,000;411,00000
 336,56;    2,800; -504,000;    0,000;506,80000
 336,57;    8,600; -285,000;    0,000;293,60000
 336,59;    0,800;  -72,000;    0,000;72,80000
 336,61;  -14,400;  304,000;    0,000;-318,40000
 336,62;   16,400; -365,000;    0,000;381,40000
 336,64;  -10,400; -138,000;    0,000;127,60000
 336,66;   21,000; 2800,000;    0,000;-2779,00000
 336,67;   28,400; -290,000;    0,000;318,40000
 336,69;   18,800;  -86,000;    0,000;104,80000
 336,71;   20,000;    7,000;    0,000;13,00000
 336,72;   -3,600;  -79,000;    0,000;75,40000
 336,74;   27,800; -556,000;    0,000;583,80000
 336,76;   39,200; -123,000;    0,000;162,20000
 336,77;  -42,200;   -3,000;    0,000;-39,20000
 336,79;   16,800;   66,000;    0,000;-49,20000
 336,81;   13,200; -500,000;    0,000;513,20000
 336,82;   19,200; -498,000;    0,000;517,20000
 336,84;   32,600;  -96,000;    0,000;128,60000
 336,86;   14,000;  369,000;    0,000;-355,00000
 336,87;  -14,800; -769,000;    0,000;754,20000
 336,89;    1,000; -544,000;    0,000;545,00000
 336,91;  -13,800; -227,000;    0,000;213,20000
 336,92;   12,800;  152,000;    0,000;-139,20000
 336,94;   11,800; -730,000;    0,000;741,80000
 336,96;   51,000; -422,000;    0,000;473,00000
 336,97;  -10,800;  -46,000;    0,000;35,20000
 336,99;   -1,600;   -1,000;    0,000;-0,60000
 337,01;   27,200; -268,000;    0,000;295,20000
 337,02;  -44,400; -535,000;    0,000;490,60000
 337,04;  -18,800;  -75,000;    0,000;56,20000
 337,06;  -15,800;  293,000;    0,000;-308,80000
 337,07;  -38,600; -255,000;    0,000;216,40000
 337,09;   15,000; -542,000;    0,000;557,00000
 337,11;  -41,000; -288,000;    0,000;247,00000
 337,12;   20,600;  449,000;    0,000;-428,40000
 337,14;  -37,400; -572,000;    0,000;534,60000
 337,16;   -3,600; -629,000;    0,000;625,40000
 337,17;  -38,400; -287,000;    0,000;248,60000
 337,19;   32,400;  192,000;    0,000;-159,60000
 337,21;   -2,200; -484,000;    0,000;481,80000
 337,22;   35,800; -284,000;    0,000;319,80000
 337,24;    9,600;   63,000;    0,000;-53,40000
 337,26;    7,800;  349,000;    0,000;-341,20000
 337,27;   -9,800; -644,000;    0,000;634,20000
 337,29;   27,000; -304,000;    0,000;331,00000
 337,31;   -4,000; -204,000;    0,000;200,00000
 337,32;   12,600;  292,000;    0,000;-279,40000
 337,34;   19,200; -692,000;    0,000;711,20000
 337,36;   11,200; -540,000;    0,000;551,20000
 337,37;   -9,400; -148,000;    0,000;138,60000
 337,39;   25,400;  506,000;    0,000;-480,60000
 337,41;  -20,400; -426,000;    0,000;405,60000
 337,42;  -18,000; -380,000;    0,000;362,00000
 337,44;  -21,000; -236,000;    0,000;215,00000
 337,46;   -5,200;   40,000;    0,000;-45,20000
 337,47;   16,000; -743,000;    0,000;759,00000
 337,49;   30,600; -501,000;    0,000;531,60000
 337,51;   10,000;  332,000;    0,000;-322,00000
 337,52;   38,000;  -38,000;    0,000;76,00000
 337,54;    9,400; -328,000;    0,000;337,40000
 337,56;   23,200; -543,000;    0,000;566,20000
 337,57;    6,600;   47,000;    0,000;-40,40000
 337,59;    4,400;  226,000;    0,000;-221,60000
 337,61;    7,600; -807,000;    0,000;814,60000
 337,62;   13,000; -312,000;    0,000;325,00000
 337,64;  -30,800; -234,000;    0,000;203,20000
 337,66;   -8,400;  -84,000;    0,000;75,60000
 337,67;   43,400; -635,000;    0,000;678,40000
 337,69;   23,000; -607,000;    0,000;630,00000
 337,71;    0,600;  154,000;    0,000;-153,40000
 337,72;    1,800;  -95,000;    0,000;96,80000
 337,74;   -6,800; -474,000;    0,000;467,20000
 337,76;   -2,800; -533,000;    0,000;530,20000
 337,77;   -2,400; -304,000;    0,000;301,60000
 337,79;   -5,600; -171,000;    0,000;165,40000
 337,81;   -7,200; -672,000;    0,000;664,80000
 337,82;    6,600; -361,000;    0,000;367,60000
 337,84;   27,600;   39,000;    0,000;-11,40000
 337,86;    8,600;  578,000;    0,000;-569,40000
 337,87;    5,200; -170,000;    0,000;175,20000
 337,89;   18,200; -456,000;    0,000;474,20000
 337,91;   10,800;  175,000;    0,000;-164,20000
 337,92;    2,600;  164,000;    0,000;-161,40000
 337,94;   -6,200; -617,000;    0,000;610,80000
 337,95;   33,200; -553,000;    0,000;586,20000
 337,97;  -18,000;  -88,000;    0,000;70,00000
 337,99;   22,600;  456,000;    0,000;-433,40000
 338,00;  -18,000; -702,000;    0,000;684,00000
 338,02;   29,800; -206,000;    0,000;235,80000
 338,04;  -25,600;  391,000;    0,000;-416,60000
 338,05;   38,400;   14,000;    0,000;24,40000
 338,07;   32,600; -656,000;    0,000;688,60000
 338,09;   46,200; -265,000;    0,000;311,20000
 338,10;   -1,800;  227,000;    0,000;-228,80000
 338,12;   38,000;  236,000;    0,000;-198,00000
 338,14;   -4,600; -667,000;    0,000;662,40000
 338,15;   22,200; -306,000;    0,000;328,20000
 338,17;    0,000;  283,000;    0,000;-283,00000
 338,19;   31,600;  654,000;    0,000;-622,40000
 338,20;    4,000; -834,000;    0,000;838,00000
 338,22;   42,400; -497,000;    0,000;539,40000
 338,24;   15,400;  165,000;    0,000;-149,60000
 338,25;   56,400; 1032,000;    0,000;-975,60000
 338,27;   11,400; -521,000;    0,000;532,40000
 338,29;    6,000; -337,000;    0,000;343,00000
 338,30;   43,200; -131,000;    0,000;174,20000
 338,32;   -1,400;  143,000;    0,000;-144,40000
 338,33;  -29,400; -350,000;    0,000;320,60000
 338,35;   55,000;  100,000;    0,000;-45,00000
 338,37;   -0,400;   29,000;    0,000;-29,40000
 338,38;    7,600; -133,000;    0,000;140,60000
 338,40;  -25,400; -647,000;    0,000;621,60000
 338,42;   10,600;  493,000;    0,000;-482,40000
 338,43;    8,000; -116,000;    0,000;124,00000
 338,45;   18,800; -113,000;    0,000;131,80000
 338,47;  -15,800; -393,000;    0,000;377,20000
 338,48;   19,600;  -47,000;    0,000;66,60000
 338,50;   -4,000;  182,000;    0,000;-186,00000
 338,52;   25,800;  174,000;    0,000;-148,20000
 338,53;   -5,200; -371,000;    0,000;365,80000
 338,55;   28,000; -324,000;    0,000;352,00000
 338,57;   -7,000;   46,000;    0,000;-53,00000
 338,58;   30,600;  627,000;    0,000;-596,40000
 338,60;   48,600; -119,000;    0,000;167,60000
 338,61;   -1,400; -481,000;    0,000;479,60000
 338,63;    7,000;  -48,000;    0,000;55,00000
 338,65;   40,800;  221,000;    0,000;-180,20000
 338,66;  -22,400; -633,000;    0,000;610,60000
 338,68;   19,400; -257,000;    0,000;276,40000
 338,70;  -53,000;  -91,000;    0,000;38,00000
 338,71;   15,200;  598,000;    0,000;-582,80000
 338,73;    0,600; -566,000;    0,000;566,60000
 338,75;   16,400;  332,000;    0,000;-315,60000
 338,76;    0,000;  287,000;    0,000;-287,00000
 338,78;   20,400;  803,000;    0,000;-782,60000
 338,80;    4,000; -429,000;    0,000;433,00000
 338,81;   12,000;  -51,000;    0,000;63,00000
 338,83;  -22,000;  -50,000;    0,000;28,00000
 338,84;   19,800;  108,000;    0,000;-88,20000
 338,86;    1,200; -451,000;    0,000;452,20000
 338,88;   14,200;  182,000;    0,000;-167,80000
 338,89;  -11,200;  296,000;    0,000;-307,20000
 338,91;   -0,200;  523,000;    0,000;-523,20000
 338,93;  -33,200; -474,000;    0,000;440,80000
 338,94;   -9,200;  -55,000;    0,000;45,80000
 338,96;    0,600;  135,000;    0,000;-134,40000
 338,98;   49,400;  432,000;    0,000;-382,60000
 338,99;    9,600; -469,000;    0,000;478,60000
 339,01;   36,400;   27,000;    0,000; 9,40000
 339,02;    5,800;  676,000;    0,000;-670,20000
 339,04;   33,000; 1082,000;    0,000;-1049,00000
 339,06;    1,800;   44,000;    0,000;-42,20000
 339,07;  -10,600;   26,000;    0,000;-36,60000
 339,09;    8,800;  501,000;    0,000;-492,20000
 339,11;   34,800;  506,000;    0,000;-471,20000
 339,12;    0,800;  763,000;    0,000;-762,20000
 339,14;   42,400;  -60,000;    0,000;102,40000
 339,16;   19,200;  689,000;    0,000;-669,80000
 339,17;   46,600; 1189,000;    0,000;-1142,40000
 339,19;    4,800;  -35,000;    0,000;39,80000
 339,20;   19,200;  196,000;    0,000;-176,80000
 339,22;  -10,400;  264,000;    0,000;-274,40000
 339,24;    2,000;  277,000;    0,000;-275,00000
 339,25;   27,000; -258,000;    0,000;285,00000
 339,27;   -4,800; -231,000;    0,000;226,20000
 339,29;    4,600;   -2,000;    0,000; 6,60000
 339,30;  -30,600; 1116,000;    0,000;-1146,60000
 339,32;    9,600; -556,000;    0,000;565,60000
 339,34;   27,200;  515,000;    0,000;-487,80000
 339,35;   -9,200;  422,000;    0,000;-431,20000
 339,37;   30,400; 1007,000;    0,000;-976,60000
 339,38;  -10,400; -470,000;    0,000;459,60000
 339,40;    1,200;  -54,000;    0,000;55,20000
 339,42;    2,200;  -53,000;    0,000;55,20000
 339,43;   31,400;  231,000;    0,000;-199,60000
 339,45;   -1,800; -427,000;    0,000;425,20000
 339,47;   24,800;  999,000;    0,000;-974,20000
 339,48;  -27,000;  167,000;    0,000;-194,00000
 339,50;   55,400;  486,000;    0,000;-430,60000
 339,51;   -2,000; -371,000;    0,000;369,00000
 339,53;    9,600;  157,000;    0,000;-147,40000
 339,55;    0,000;  195,000;    0,000;-195,00000
 339,56;   38,600;   22,000;    0,000;16,60000
 339,58;   35,400; -279,000;    0,000;314,40000
 339,60;    7,400; -317,000;    0,000;324,40000
 339,61;   -7,000; -160,000;    0,000;153,00000
 339,63;   20,600;   48,000;    0,000;-27,40000
 339,64;    3,800;  -77,000;    0,000;80,80000
 339,66;   16,200;  -37,000;    0,000;53,20000
 339,68;  -34,000;   65,000;    0,000;-99,00000
 339,69;   -1,600;  500,000;    0,000;-501,60000
 339,71;   -5,000; -376,000;    0,000;371,00000
 339,73;   15,800;  -86,000;    0,000;101,80000
 339,74;   -4,400; -147,000;    0,000;142,60000
 339,76;    7,000;  353,000;    0,000;-346,00000
 339,77;  -11,000; -620,000;    0,000;609,00000
 339,79;   24,800; -356,000;    0,000;380,80000
 339,81;    4,600;   89,000;    0,000;-84,40000
 339,82;   10,000;  -69,000;    0,000;79,00000
 339,84;    0,000;  188,000;    0,000;-188,00000
 339,86;   22,200;  172,000;    0,000;-149,80000
 339,87;   28,400;  378,000;    0,000;-349,60000
 339,89;   12,400;  197,000;    0,000;-184,60000
 339,90;   -0,600; -265,000;    0,000;264,40000
 339,92;    0,800;   72,000;    0,000;-71,20000
 339,94;   19,400;   68,000;    0,000;-48,60000
 339,95;   32,800;  743,000;    0,000;-710,20000
 339,97;   30,000;   80,000;    0,000;-50,00000
 339,99;   -7,800;  -26,000;    0,000;18,20000
 340,00;   -9,200;  240,000;    0,000;-249,20000
 340,02;    1,400;  530,000;    0,000;-528,60000
 340,03;    9,000; -125,000;    0,000;134,00000
 340,05;   -5,200; -172,000;    0,000;166,80000
 340,07;   18,800;  463,000;    0,000;-444,20000
 340,08;   40,400;  516,000;    0,000;-475,60000
 340,10;  102,400;   95,000;    0,000; 7,40000
 340,12;  123,800;  320,000;    0,000;-196,20000
 340,13;  210,000;  624,000;    0,000;-414,00000
 340,15;  331,400;  862,000;    0,000;-530,60000
 340,16;  529,200;  420,000;    0,000;109,20000
 340,18;  731,600;  590,000;    0,000;141,60000
 340,20;  959,600;  614,000;    0,000;345,60000
 340,21; 1146,600; 1278,000;    0,000;-131,40000
 340,23; 1357,200;  301,000;    0,000;1056,20000
 340,25; 2066,200;  568,000;    0,000;1498,20000
 340,26; 3154,000; 1433,000;    0,000;1721,00000
 340,28; 5447,800; 1375,000;    0,000;4072,80000
 340,29; 5854,600;   17,000;    0,000;5837,60000
 340,31; 4090,000;  935,000;    0,000;3155,00000
 340,33; 2002,000; 1002,000;    0,000;1000,00000
 340,34; 1048,200;  919,000;    0,000;129,20000
 340,36;  508,000; 1031,000;    0,000;-523,00000
 340,37;  284,000;  615,000;    0,000;-331,00000
 340,39;  211,200;  983,000;    0,000;-771,80000
 340,41;  152,600; 1245,000;    0,000;-1092,40000
 340,42;   64,200;  -89,000;    0,000;153,20000
 340,44;  100,400;   84,000;    0,000;16,40000
 340,46;   16,800;  417,000;    0,000;-400,20000
 340,47;   35,200; 1128,000;    0,000;-1092,80000
 340,49;   57,600; -178,000;    0,000;235,60000
 340,50;   44,400;  330,000;    0,000;-285,60000
 340,52;   26,200;  418,000;    0,000;-391,80000
 340,54;   46,200;  443,000;    0,000;-396,80000
 340,55;   63,000;  182,000;    0,000;-119,00000
 340,57;   46,000;  435,000;    0,000;-389,00000
 340,58;   21,200;  457,000;    0,000;-435,80000
 340,60;   35,600;  831,000;    0,000;-795,40000
 340,62;   28,600;  217,000;    0,000;-188,40000
 340,63;   43,200;  253,000;    0,000;-209,80000
 340,65;   37,600;  439,000;    0,000;-401,40000
 340,66;   29,000;  341,000;    0,000;-312,00000
 340,68;   42,200;  337,000;    0,000;-294,80000
 340,70;   31,800; -319,000;    0,000;350,80000
 340,71;   12,400;  552,000;    0,000;-539,60000
 340,73;   34,600;  448,000;    0,000;-413,40000
 340,75;   39,800; -212,000;    0,000;251,80000
 340,76;   47,200;  189,000;    0,000;-141,80000
 340,78;  -24,600;  248,000;    0,000;-272,60000
 340,79;   31,800;  404,000;    0,000;-372,20000
 340,81;   28,600;  -48,000;    0,000;76,60000
 340,83;   30,400;   16,000;    0,000;14,40000
 340,84;    2,000;   60,000;    0,000;-58,00000
 340,86;   15,800;  996,000;    0,000;-980,20000
 340,87;   34,200; -280,000;    0,000;314,20000
 340,89;   -8,000; -212,000;    0,000;204,00000
 340,91;    2,200;  618,000;    0,000;-615,80000
 340,92;   31,200;  276,000;    0,000;-244,80000
 340,94;   16,200;  142,000;    0,000;-125,80000
 340,95;   20,400; -260,000;    0,000;280,40000
 340,97;   -4,600; -166,000;    0,000;161,40000
 340,99;   43,000;  823,000;    0,000;-780,00000
 341,00;    8,400; -388,000;    0,000;396,40000
 341,02;   21,000; -321,000;    0,000;342,00000
 341,03;  -14,200;   44,000;    0,000;-58,20000
 341,05;   57,600;  677,000;    0,000;-619,40000
 341,07;   17,000; -503,000;    0,000;520,00000
 341,08;   17,800;  174,000;    0,000;-156,20000
 341,10;    4,400;  297,000;    0,000;-292,60000
 341,12;  -13,000;  936,000;    0,000;-949,00000
 341,13;   12,000; -634,000;    0,000;646,00000
 341,15;   27,400;  -71,000;    0,000;98,40000
 341,16;    8,600;  213,000;    0,000;-204,40000
 341,18;   40,000;  941,000;    0,000;-901,00000
 341,20;   10,200;  246,000;    0,000;-235,80000
 341,21;   29,800;  -63,000;    0,000;92,80000
 341,23;    1,400; 1026,000;    0,000;-1024,60000
 341,24;   32,600;  953,000;    0,000;-920,40000
 341,26;    6,400; -216,000;    0,000;222,40000
 341,28;   27,200;  265,000;    0,000;-237,80000
 341,29;   11,400;  288,000;    0,000;-276,60000
 341,31;   21,600;  647,000;    0,000;-625,40000
 341,32;   18,600; -244,000;    0,000;262,60000
 341,34;   16,200;  112,000;    0,000;-95,80000
 341,36;   12,400;  -34,000;    0,000;46,40000
 341,37;   43,000;  436,000;    0,000;-393,00000
 341,39;   40,000; -421,000;    0,000;461,00000
 341,40;    2,600; -232,000;    0,000;234,60000
 341,42;   16,000;  298,000;    0,000;-282,00000
 341,44;   18,200;  499,000;    0,000;-480,80000
 341,45;    0,000; -252,000;    0,000;252,00000
 341,47;   36,600; -346,000;    0,000;382,60000
 341,48;    5,400;  234,000;    0,000;-228,60000
 341,50;   35,200;  483,000;    0,000;-447,80000
 341,52;   17,200; -353,000;    0,000;370,20000
 341,53;   -1,400; -546,000;    0,000;544,60000
 341,55;   28,000;  399,000;    0,000;-371,00000
 341,56;   35,000;  515,000;    0,000;-480,00000
 341,58;   41,400;   63,000;    0,000;-21,60000
 341,59;   17,800; -150,000;    0,000;167,80000
 341,61;    2,600; 1121,000;    0,000;-1118,40000
 341,63;   -5,200;  446,000;    0,000;-451,20000
 341,64;   29,600; -251,000;    0,000;280,60000
 341,66;   34,200;  -74,000;    0,000;108,20000
 341,67;   26,200;  513,000;    0,000;-486,80000
 341,69;   24,600;  369,000;    0,000;-344,40000
 341,71;    0,800; -663,000;    0,000;663,80000
 341,72;    7,800; -271,000;    0,000;278,80000
 341,74;   38,200;  177,000;    0,000;-138,80000
 341,75;   12,000;  147,000;    0,000;-135,00000
 341,77;  -24,600; -620,000;    0,000;595,40000
 341,79;   18,800; -197,000;    0,000;215,80000
 341,80;   -3,800;  554,000;    0,000;-557,80000
 341,82;   56,000; 1017,000;    0,000;-961,00000
 341,83;    0,000; -663,000;    0,000;663,00000
 341,85;   12,600;   34,000;    0,000;-21,40000
 341,87;    1,800;  191,000;    0,000;-189,20000
 341,88;   19,400;  429,000;    0,000;-409,60000
 341,90;   26,400; -656,000;    0,000;682,40000
 341,91;   26,800; -369,000;    0,000;395,80000
 341,93;   33,200;  135,000;    0,000;-101,80000
 341,95;   27,200;  458,000;    0,000;-430,80000
 341,96;   20,000; -274,000;    0,000;294,00000
 341,98;    8,800; -650,000;    0,000;658,80000
 341,99;  -17,000;   57,000;    0,000;-74,00000
 342,01;   16,600;  452,000;    0,000;-435,40000
 342,02;   18,600; -279,000;    0,000;297,60000
 342,04;   25,200; -573,000;    0,000;598,20000
 342,06;   39,800;  429,000;    0,000;-389,20000
 342,07;  -10,200; -117,000;    0,000;106,80000
 342,09;  -10,800; -864,000;    0,000;853,20000
 342,10;   31,000; -559,000;    0,000;590,00000
 342,12;   16,400;  273,000;    0,000;-256,60000
 342,14;   -1,600;  313,000;    0,000;-314,60000
 342,15;   21,000; -291,000;    0,000;312,00000
 342,17;   -3,200; -280,000;    0,000;276,80000
 342,18;   -1,600;   58,000;    0,000;-59,60000
 342,20;  -14,200;   33,000;    0,000;-47,20000
 342,22;   -4,200; -386,000;    0,000;381,80000
 342,23;   67,600; -441,000;    0,000;508,60000
 342,25;   17,000;  420,000;    0,000;-403,00000
 342,26;   -4,800;  203,000;    0,000;-207,80000
 342,28;   42,200; -198,000;    0,000;240,20000
 342,29;   30,600; -585,000;    0,000;615,60000
 342,31;    8,000;  241,000;    0,000;-233,00000
 342,33;   45,000;   62,000;    0,000;-17,00000
 342,34;   -9,400; -195,000;    0,000;185,60000
 342,36;   23,600; -833,000;    0,000;856,60000
 342,37;   42,200;   65,000;    0,000;-22,80000
 342,39;    4,800;  -79,000;    0,000;83,80000
 342,41;  -32,000; -513,000;    0,000;481,00000
 342,42;  -24,200; -543,000;    0,000;518,80000
 342,44;  -41,600; -205,000;    0,000;163,40000
 342,45;    6,600;  263,000;    0,000;-256,40000
 342,47;   33,400;  -10,000;    0,000;43,40000
 342,48;    0,200; -800,000;    0,000;800,20000
 342,50;  -20,000;  236,000;    0,000;-256,00000
 342,52;   27,400;  166,000;    0,000;-138,60000
 342,53;   -5,600; -721,000;    0,000;715,40000
 342,55;   31,400; -489,000;    0,000;520,40000
 342,56;  -27,000; -112,000;    0,000;85,00000
 342,58;  -31,800;   64,000;    0,000;-95,80000
 342,60;  -10,800;  161,000;    0,000;-171,80000
 342,61;   32,000; -680,000;    0,000;712,00000
 342,63;   16,200;   21,000;    0,000;-4,80000
 342,64;   26,600;  482,000;    0,000;-455,40000
 342,66;    4,000; -450,000;    0,000;454,00000
 342,67;   37,000; -303,000;    0,000;340,00000
 342,69;   -0,800;   62,000;    0,000;-62,80000
 342,71;  -26,600;  425,000;    0,000;-451,60000
 342,72;    0,000; -867,000;    0,000;867,00000
 342,74;    3,600; -601,000;    0,000;604,60000
 342,75;   51,600;   76,000;    0,000;-24,40000
 342,77;   28,600;  -29,000;    0,000;57,60000
 342,78;   10,800; -762,000;    0,000;772,80000
 342,80;   30,000; -649,000;    0,000;679,00000
 342,82;  -24,400;  143,000;    0,000;-167,40000
 342,83;   17,600;  276,000;    0,000;-258,40000
 342,85;  -25,000; -553,000;    0,000;528,00000
 342,86;  -13,000; -755,000;    0,000;742,00000
 342,88;    6,200;   33,000;    0,000;-26,80000
 342,89;   16,000;  314,000;    0,000;-298,00000
 342,91;   -4,800; -524,000;    0,000;519,20000
 342,93;   25,200; -544,000;    0,000;569,20000
 342,94;   13,000;  218,000;    0,000;-205,00000
 342,96;   26,800;  145,000;    0,000;-118,20000
 342,97;    5,600; -693,000;    0,000;698,60000
 342,99;   32,800; -412,000;    0,000;444,80000
 343,01;    5,600; -132,000;    0,000;137,60000
 343,02;  -12,600;   -9,000;    0,000;-3,60000
 343,04;   21,400; -842,000;    0,000;863,40000
 343,05;   16,400; -678,000;    0,000;694,40000
 343,07;   20,200;  216,000;    0,000;-195,80000
 343,08;   11,400;  452,000;    0,000;-440,60000
 343,10;   21,000; -863,000;    0,000;884,00000
 343,12;    8,800;  -83,000;    0,000;91,80000
 343,13;  -32,400;  181,000;    0,000;-213,40000
 343,15;   31,800;  262,000;    0,000;-230,20000
 343,16;    1,400;  488,000;    0,000;-486,60000
 343,18;   25,800; -297,000;    0,000;322,80000
 343,19;   16,600;  152,000;    0,000;-135,40000
 343,21;   19,200;  409,000;    0,000;-389,80000
 343,22;   10,200; -493,000;    0,000;503,20000
 343,24;   18,800; -626,000;    0,000;644,80000
 343,26;   23,400;  265,000;    0,000;-241,60000
 343,27;   30,000;    2,000;    0,000;28,00000
 343,29;  -14,600; -686,000;    0,000;671,40000
 343,30;   48,600; -216,000;    0,000;264,60000
 343,32;  -12,000;  -83,000;    0,000;71,00000
 343,33;    8,000;   47,000;    0,000;-39,00000
 343,35;   -6,800; -875,000;    0,000;868,20000
 343,37;   27,600; -565,000;    0,000;592,60000
 343,38;   -0,600;  312,000;    0,000;-312,60000
 343,40;   10,600;   23,000;    0,000;-12,40000
 343,41;   11,200; -733,000;    0,000;744,20000
 343,43;   14,200; -605,000;    0,000;619,20000
 343,44;    8,600;  341,000;    0,000;-332,40000
 343,46;  -22,000;  296,000;    0,000;-318,00000
 343,48;   -4,600; -881,000;    0,000;876,40000
 343,49;    8,600; -372,000;    0,000;380,60000
 343,51;   21,000;  289,000;    0,000;-268,00000
 343,52;   10,000;  -15,000;    0,000;25,00000
 343,54;   10,000; -116,000;    0,000;126,00000
 343,55;    4,400; -764,000;    0,000;768,40000
 343,57;  -13,200; -108,000;    0,000;94,80000
 343,59;   10,400;   99,000;    0,000;-88,60000
 343,60;  -17,800; -372,000;    0,000;354,20000
 343,62;   20,000; -682,000;    0,000;702,00000
 343,63;   11,000;   18,000;    0,000;-7,00000
 343,65;   29,800;  -70,000;    0,000;99,80000
 343,66;   12,000; -699,000;    0,000;711,00000
 343,68;   20,400; -312,000;    0,000;332,40000
 343,69;  -34,200;  -13,000;    0,000;-21,20000
 343,71;   -0,600;  581,000;    0,000;-581,60000
 343,73;    0,200; -641,000;    0,000;641,20000
 343,74;   21,200; -691,000;    0,000;712,20000
 343,76;   17,600;  196,000;    0,000;-178,40000
 343,77;    9,400;  366,000;    0,000;-356,60000
 343,79;   -1,600; -394,000;    0,000;392,40000
 343,80;   17,000; -360,000;    0,000;377,00000
 343,82;   -2,400;  -24,000;    0,000;21,60000
 343,83;    2,200;  298,000;    0,000;-295,80000
 343,85;    7,400; -881,000;    0,000;888,40000
 343,87;   20,800; -399,000;    0,000;419,80000
 343,88;   -4,200;  -74,000;    0,000;69,80000
 343,90;   30,000;  -74,000;    0,000;104,00000
 343,91;    2,000; -783,000;    0,000;785,00000
 343,93;  -15,400; -606,000;    0,000;590,60000
 343,94;    7,000; -102,000;    0,000;109,00000
 343,96;    1,400; -185,000;    0,000;186,40000
 343,98;   21,800; -607,000;    0,000;628,80000
 343,99;    4,600; -349,000;    0,000;353,60000
 344,01;   -7,600;  -55,000;    0,000;47,40000
 344,02;   28,000;  279,000;    0,000;-251,00000
 344,04;  -12,000;  -93,000;    0,000;81,00000
 344,05;   27,600; -425,000;    0,000;452,60000
 344,07;   -9,800;  -71,000;    0,000;61,20000
 344,08;  -12,800;    1,000;    0,000;-13,80000
 344,10;  -21,400; -499,000;    0,000;477,60000
 344,12;   25,400; -518,000;    0,000;543,40000
 344,13;    3,600;  -29,000;    0,000;32,60000
 344,15;   23,200;  305,000;    0,000;-281,80000
 344,16;   27,000; -624,000;    0,000;651,00000
 344,18;   -5,600; -155,000;    0,000;149,40000
 344,19;   22,400;   65,000;    0,000;-42,60000
 344,21;    1,000;  432,000;    0,000;-431,00000
 344,22;   -6,000; -490,000;    0,000;484,00000
 344,24;  -16,400; -430,000;    0,000;413,60000
 344,25;    7,600;  488,000;    0,000;-480,40000
 344,27;   30,600;  377,000;    0,000;-346,40000
 344,29;   13,400; -650,000;    0,000;663,40000
 344,30;   56,000; -515,000;    0,000;571,00000
 344,32;  -21,600;  253,000;    0,000;-274,60000
 344,33;  -11,000;  428,000;    0,000;-439,00000
 344,35;   10,600; -662,000;    0,000;672,60000
 344,36;   17,600;  -39,000;    0,000;56,60000
 344,38;  -17,400;   64,000;    0,000;-81,40000
 344,39;   16,200;  229,000;    0,000;-212,80000
 344,41;   -9,000; -354,000;    0,000;345,00000
 344,43;    9,000;  -71,000;    0,000;80,00000
 344,44;   29,000; -150,000;    0,000;179,00000
 344,46;   -9,000;  456,000;    0,000;-465,00000
 344,47;  -20,800; -658,000;    0,000;637,20000
 344,49;    0,000; -169,000;    0,000;169,00000
 344,50;   22,000;  272,000;    0,000;-250,00000
 344,52;   28,200;  245,000;    0,000;-216,80000
 344,53;    1,600; -764,000;    0,000;765,60000
 344,55;   -5,400; -279,000;    0,000;273,60000
 344,56;  -29,200;   11,000;    0,000;-40,20000
 344,58;   11,400;  752,000;    0,000;-740,60000
 344,60;  -22,200; -658,000;    0,000;635,80000
 344,61;  -30,000; -358,000;    0,000;328,00000
 344,63;   -7,000;  518,000;    0,000;-525,00000
 344,64;    5,800;  568,000;    0,000;-562,20000
 344,66;    9,800; -632,000;    0,000;641,80000
 344,67;  -23,800; -477,000;    0,000;453,20000
 344,69;    1,400;  487,000;    0,000;-485,60000
 344,70;   55,800;  291,000;    0,000;-235,20000
 344,72;   16,800; -322,000;    0,000;338,80000
 344,73;   16,600; -286,000;    0,000;302,60000
 344,75;   17,000;  171,000;    0,000;-154,00000
 344,77;    8,200;  588,000;    0,000;-579,80000
 344,78;   16,400; -373,000;    0,000;389,40000
 344,80;   -9,000; -497,000;    0,000;488,00000
 344,81;   41,000;  407,000;    0,000;-366,00000
 344,83;   -0,400;  348,000;    0,000;-348,40000
 344,84;  -17,400; -510,000;    0,000;492,60000
 344,86;   -6,800; -458,000;    0,000;451,20000
 344,87;   -9,600;  995,000;    0,000;-1004,60000
 344,89;   10,000;  312,000;    0,000;-302,00000
 344,90;   31,400; -230,000;    0,000;261,40000
 344,92;   34,800; -167,000;    0,000;201,80000
 344,93;  -20,800; -105,000;    0,000;84,20000
 344,95;   17,400;  746,000;    0,000;-728,60000
 344,97;  -34,000; -508,000;    0,000;474,00000
 344,98;  -23,800; -493,000;    0,000;469,20000
 345,00;   10,600;  444,000;    0,000;-433,40000
 345,01;   43,800;  500,000;    0,000;-456,20000
 345,03;   -9,600; -495,000;    0,000;485,40000
 345,04;   30,600;  574,000;    0,000;-543,40000
 345,06;   31,400;  693,000;    0,000;-661,60000
 345,07;    3,000;  346,000;    0,000;-343,00000
 345,09;    4,800; -216,000;    0,000;220,80000
 345,10;   19,600;  -21,000;    0,000;40,60000
 345,12;  -17,000;  295,000;    0,000;-312,00000
 345,13;    3,400; 1103,000;    0,000;-1099,60000
 345,15;  -17,600; -415,000;    0,000;397,40000
 345,17;   32,600; -264,000;    0,000;296,60000
 345,18;  -29,200;  221,000;    0,000;-250,20000
 345,20;   17,200;  514,000;    0,000;-496,80000
 345,21;   -4,000; -243,000;    0,000;239,00000
 345,23;    2,000;  -93,000;    0,000;95,00000
 345,24;    3,000;  102,000;    0,000;-99,00000
 345,26;   23,000;  589,000;    0,000;-566,00000
 345,27;  -19,600;  -39,000;    0,000;19,40000
 345,29;    9,400;  -31,000;    0,000;40,40000
 345,30;   28,000;  413,000;    0,000;-385,00000
 345,32;   10,800; 1215,000;    0,000;-1204,20000
 345,33;   26,400; -324,000;    0,000;350,40000
 345,35;   13,600; -203,000;    0,000;216,60000
 345,37;   -7,800;  558,000;    0,000;-565,80000
 345,38;   46,600;  531,000;    0,000;-484,40000
 345,40;   23,200; -373,000;    0,000;396,20000
 345,41;   16,400;  244,000;    0,000;-227,60000
 345,43;   12,200;  564,000;    0,000;-551,80000
 345,44;   24,000;  605,000;    0,000;-581,00000
 345,46;   14,800; -405,000;    0,000;419,80000
 345,47;   -7,600;  102,000;    0,000;-109,60000
 345,49;   34,400;  166,000;    0,000;-131,60000
 345,50;   39,400;  848,000;    0,000;-808,60000
 345,52;   -5,800; -458,000;    0,000;452,20000
 345,53;   41,400;  140,000;    0,000;-98,60000
 345,55;   32,600;  363,000;    0,000;-330,40000
 345,56;   35,000;  801,000;    0,000;-766,00000
 345,58;   -7,800; -138,000;    0,000;130,20000
 345,59;   21,600;  143,000;    0,000;-121,40000
 345,61;   12,400;  310,000;    0,000;-297,60000
 345,63;   40,600;  806,000;    0,000;-765,40000
 345,64;    0,600; -792,000;    0,000;792,60000
 345,66;   56,600;  249,000;    0,000;-192,40000
 345,67;   36,200;  813,000;    0,000;-776,80000
 345,69;   79,400; 1251,000;    0,000;-1171,60000
 345,70;   11,800; -275,000;    0,000;286,80000
 345,72;   30,800;  -26,000;    0,000;56,80000
 345,73;   24,800;  510,000;    0,000;-485,20000
 345,75;   29,200;  527,000;    0,000;-497,80000
 345,76;  -16,800; -353,000;    0,000;336,20000
 345,78;    5,800;  457,000;    0,000;-451,20000
 345,79;    6,800;  773,000;    0,000;-766,20000
 345,81;    2,000;  551,000;    0,000;-549,00000
 345,82;   13,200;  -73,000;    0,000;86,20000
 345,84;   24,400;  172,000;    0,000;-147,60000
 345,85;   16,600;  354,000;    0,000;-337,40000
 345,87;   -7,200;  703,000;    0,000;-710,20000
 345,88;   -6,800; -187,000;    0,000;180,20000
 345,90;   22,600;   70,000;    0,000;-47,40000
 345,92;  -14,000;  488,000;    0,000;-502,00000
 345,93;   -3,600;  843,000;    0,000;-846,60000
 345,95;   -9,400;  179,000;    0,000;-188,40000
 345,96;    8,600; -107,000;    0,000;115,60000
 345,98;   28,200;  603,000;    0,000;-574,80000
 345,99;   28,800;  418,000;    0,000;-389,20000
 346,01;    1,600;   33,000;    0,000;-31,40000
 346,02;   23,800; -294,000;    0,000;317,80000
 346,04;    4,800;  464,000;    0,000;-459,20000
 346,05;  -10,800;  328,000;    0,000;-338,80000
 346,07;   -7,000; -467,000;    0,000;460,00000
 346,08;   24,400;  -19,000;    0,000;43,40000
 346,10;   -2,000;  423,000;    0,000;-425,00000
 346,11;   12,400;  498,000;    0,000;-485,60000
 346,13;    6,000;  -50,000;    0,000;56,00000
 346,14;   25,800;  219,000;    0,000;-193,20000
 346,16;    5,800;  530,000;    0,000;-524,20000
 346,17;   27,000; 1114,000;    0,000;-1087,00000
 346,19;   22,200; -431,000;    0,000;453,20000
 346,20;   17,000;   -9,000;    0,000;26,00000
 346,22;   13,600;  503,000;    0,000;-489,40000
 346,23;   44,600;  373,000;    0,000;-328,40000
 346,25;  -15,200; -345,000;    0,000;329,80000
 346,26;   14,600;   -7,000;    0,000;21,60000
 346,28;   34,000;  531,000;    0,000;-497,00000
 346,30;  112,000; 1272,000;    0,000;-1160,00000
 346,31;  -11,800; -132,000;    0,000;120,20000
 346,33;   33,200;   62,000;    0,000;-28,80000
 346,34;   65,400; 1052,000;    0,000;-986,60000
 346,36;   90,600;  602,000;    0,000;-511,40000
 346,37;  162,000;   36,000;    0,000;126,00000
 346,39;  283,800;  534,000;    0,000;-250,20000
 346,40;  420,800;  625,000;    0,000;-204,20000
 346,42;  692,200; 1656,000;    0,000;-963,80000
 346,43; 1006,000;   29,000;    0,000;977,00000
 346,45; 1268,800;  656,000;    0,000;612,80000
 346,46; 1461,200;  723,000;    0,000;738,20000
 346,48; 1631,200; 1063,000;    0,000;568,20000
 346,49; 2103,400;  190,000;    0,000;1913,40000
 346,51; 3226,400;  517,000;    0,000;2709,40000
 346,52; 5025,200;  558,000;    0,000;4467,20000
 346,54; 8065,800; 2368,000;    0,000;5697,80000
 346,55; 8604,200;  127,000;    0,000;8477,20000
 346,57; 6165,800;  959,000;    0,000;5206,80000
 346,58; 3598,600; 1420,000;    0,000;2178,60000
 346,60; 2544,800;  869,000;    0,000;1675,80000
 346,61; 1943,400;  -86,000;    0,000;2029,40000
 346,63; 1740,600;  140,000;    0,000;1600,60000
 346,64; 2000,400; 1417,000;    0,000;583,40000
 346,66; 2817,800; 1590,000;    0,000;1227,80000
 346,67; 4423,800;   22,000;    0,000;4401,80000
 346,69; 5701,000;  255,000;    0,000;5446,00000
 346,70; 5315,200; 1212,000;    0,000;4103,20000
 346,72; 3059,000;  871,000;    0,000;2188,00000
 346,73; 1657,800;  593,000;    0,000;1064,80000
 346,75;  883,600;  549,000;    0,000;334,60000
 346,76;  477,000;  249,000;    0,000;228,00000
 346,78;  349,000;  850,000;    0,000;-501,00000
 346,79;  225,800;  261,000;    0,000;-35,20000
 346,81;  178,200;  409,000;    0,000;-230,80000
 346,82;  137,000;  728,000;    0,000;-591,00000
 346,84;   98,600;  877,000;    0,000;-778,40000
 346,85;   49,600;  297,000;    0,000;-247,40000
 346,87;   71,400;  103,000;    0,000;-31,60000
 346,88;   70,200;  890,000;    0,000;-819,80000
 346,90;   81,600;  868,000;    0,000;-786,40000
 346,91;   84,400;  534,000;    0,000;-449,60000
 346,93;   77,600;  357,000;    0,000;-279,40000
 346,94;   70,000;  449,000;    0,000;-379,00000
 346,96;   59,000;  581,000;    0,000;-522,00000
 346,97;   45,600;  -20,000;    0,000;65,60000
 346,99;   62,200;   53,000;    0,000; 9,20000
 347,00;   60,800;   96,000;    0,000;-35,20000
 347,02;   56,000;  873,000;    0,000;-817,00000
 347,04;   25,400; -160,000;    0,000;185,40000
 347,05;   76,200;  216,000;    0,000;-139,80000
 347,07;   25,200;  622,000;    0,000;-596,80000
 347,08;   37,400; 1548,000;    0,000;-1510,60000
 347,10;   38,000;  398,000;    0,000;-360,00000
 347,11;   70,600;  584,000;    0,000;-513,40000
 347,13;   36,200;  256,000;    0,000;-219,80000
 347,14;   60,600; 1119,000;    0,000;-1058,40000
 347,16;   56,000;  -52,000;    0,000;108,00000
 347,17;   22,200; -109,000;    0,000;131,20000
 347,19;   81,800;  432,000;    0,000;-350,20000
 347,20;   71,000;  926,000;    0,000;-855,00000
 347,22;   10,400; -173,000;    0,000;183,40000
 347,23;   31,000;  166,000;    0,000;-135,00000
 347,25;   13,800;   13,000;    0,000; 0,80000
 347,26;   35,600;  970,000;    0,000;-934,40000
 347,28;  -15,600; -589,000;    0,000;573,40000
 347,29;   32,400;  398,000;    0,000;-365,60000
 347,31;   21,200;  289,000;    0,000;-267,80000
 347,32;   41,200; 1023,000;    0,000;-981,80000
 347,34;   49,800;  117,000;    0,000;-67,20000
 347,35;    7,400;  792,000;    0,000;-784,60000
 347,37;   36,800;   41,000;    0,000;-4,20000
 347,38;   38,800;  689,000;    0,000;-650,20000
 347,40;   35,200; -277,000;    0,000;312,20000
 347,41;   25,800;  105,000;    0,000;-79,20000
 347,42;   31,000;  756,000;    0,000;-725,00000
 347,44;   18,400;  715,000;    0,000;-696,60000
 347,45;   -8,800;  134,000;    0,000;-142,80000
 347,47;   22,400;  496,000;    0,000;-473,60000
 347,48;    8,200;  634,000;    0,000;-625,80000
 347,50;   47,800;  494,000;    0,000;-446,20000
 347,51;  -12,800; -297,000;    0,000;284,20000
 347,53;   48,800;  135,000;    0,000;-86,20000
 347,54;   10,600;  804,000;    0,000;-793,40000
 347,56;   -5,000;  791,000;    0,000;-796,00000
 347,57;   11,600;   85,000;    0,000;-73,40000
 347,59;   23,400;  290,000;    0,000;-266,60000
 347,60;   30,600;  239,000;    0,000;-208,40000
 347,62;   42,000;  468,000;    0,000;-426,00000
 347,63;   24,400; -487,000;    0,000;511,40000
 347,65;   -1,800;  203,000;    0,000;-204,80000
 347,66;   20,200;  173,000;    0,000;-152,80000
 347,68;   20,000;  790,000;    0,000;-770,00000
 347,69;    4,000; -274,000;    0,000;278,00000
 347,71;    4,000;  167,000;    0,000;-163,00000
 347,72;   -8,600;  797,000;    0,000;-805,60000
 347,74;   56,800;  655,000;    0,000;-598,20000
 347,75;   -3,400; -155,000;    0,000;151,60000
 347,77;   36,200;  467,000;    0,000;-430,80000
 347,78;   19,400;  235,000;    0,000;-215,60000
 347,80;   32,800;  749,000;    0,000;-716,20000
 347,81;    6,200; -183,000;    0,000;189,20000
 347,83;   30,800;   41,000;    0,000;-10,20000
 347,84;   10,400;  633,000;    0,000;-622,60000
 347,86;   74,800; 1428,000;    0,000;-1353,20000
 347,87;    5,600;   24,000;    0,000;-18,40000
 347,89;   16,800; -109,000;    0,000;125,80000
 347,90;  -20,800;  290,000;    0,000;-310,80000
 347,92;   -8,200; 1007,000;    0,000;-1015,20000
 347,93;   -5,600;  116,000;    0,000;-121,60000
 347,95;   32,200;  286,000;    0,000;-253,80000
 347,96;   -0,200;  389,000;    0,000;-389,20000
 347,98;   32,600;  311,000;    0,000;-278,40000
 347,99;   39,400; -497,000;    0,000;536,40000
 348,01;   16,200; -300,000;    0,000;316,20000
 348,02;  -11,400;  605,000;    0,000;-616,40000
 348,04;   26,400;  769,000;    0,000;-742,60000
 348,05;   -0,200; -367,000;    0,000;366,80000
 348,07;   36,600; -100,000;    0,000;136,60000
 348,08;    0,200;  530,000;    0,000;-529,80000
 348,10;   38,200;  769,000;    0,000;-730,80000
 348,11;    2,200; -592,000;    0,000;594,20000
 348,13;   11,600; -213,000;    0,000;224,60000
 348,14;    4,400;   -2,000;    0,000; 6,40000
 348,16;   32,400;  777,000;    0,000;-744,60000
 348,17;   -6,800; -184,000;    0,000;177,20000
 348,18;   25,200; -282,000;    0,000;307,20000
 348,20;    1,600;  629,000;    0,000;-627,40000
 348,21;   17,400;  669,000;    0,000;-651,60000
 348,23;   10,400; -488,000;    0,000;498,40000
 348,24;    2,800;    6,000;    0,000;-3,20000
 348,26;   26,800;  479,000;    0,000;-452,20000
 348,27;   35,600;  733,000;    0,000;-697,40000
 348,29;   -2,800; -486,000;    0,000;483,20000
 348,30;   19,200; -430,000;    0,000;449,20000
 348,32;    6,000;  199,000;    0,000;-193,00000
 348,33;   28,200;  638,000;    0,000;-609,80000
 348,35;   -2,400; -630,000;    0,000;627,60000
 348,36;   23,600; -435,000;    0,000;458,60000
 348,38;  -22,800;  -29,000;    0,000; 6,20000
 348,39;   -0,600;  322,000;    0,000;-322,60000
 348,41;   25,000; -757,000;    0,000;782,00000
 348,42;    0,600; -493,000;    0,000;493,60000
 348,44;   25,600;  598,000;    0,000;-572,40000
 348,45;   24,000;  280,000;    0,000;-256,00000
 348,47;   27,400; -257,000;    0,000;284,40000
 348,48;   -1,200; -100,000;    0,000;98,80000
 348,50;   -6,800;  527,000;    0,000;-533,80000
 348,51;    5,800;   57,000;    0,000;-51,20000
 348,53;  -25,200; -380,000;    0,000;354,80000
 348,54;   10,800; -464,000;    0,000;474,80000
 348,55;   -9,600;  -48,000;    0,000;38,40000
 348,57;   27,000;  272,000;    0,000;-245,00000
 348,58;    8,600; -466,000;    0,000;474,60000
 348,60;   21,000; -448,000;    0,000;469,00000
 348,61;    6,800; -250,000;    0,000;256,80000
 348,63;   29,800;  674,000;    0,000;-644,20000
 348,64;  -35,200; -646,000;    0,000;610,80000
 348,66;    3,600; -739,000;    0,000;742,60000
 348,67;   -5,600; -146,000;    0,000;140,40000
 348,69;   39,000;  361,000;    0,000;-322,00000
 348,70;  -11,000; -781,000;    0,000;770,00000
 348,72;   25,200;  -23,000;    0,000;48,20000
 348,73;    9,800;  334,000;    0,000;-324,20000
 348,75;    4,000;  203,000;    0,000;-199,00000
 348,76;   25,000; -366,000;    0,000;391,00000
 348,78;   42,000; -600,000;    0,000;642,00000
 348,79;  -19,600; -268,000;    0,000;248,40000
 348,81;   37,800; -117,000;    0,000;154,80000
 348,82;  -22,000; -655,000;    0,000;633,00000
 348,83;   77,800;  121,000;    0,000;-43,20000
 348,85;  -16,000; -206,000;    0,000;190,00000
 348,86;  -14,200; -172,000;    0,000;157,80000
 348,88;   -0,600; -503,000;    0,000;502,40000
 348,89;    5,200; -779,000;    0,000;784,20000
 348,91;  -16,600;    8,000;    0,000;-24,60000
 348,92;   -7,200;   61,000;    0,000;-68,20000
 348,94;   -5,800; -248,000;    0,000;242,20000
 348,95;   26,200; -439,000;    0,000;465,20000
 348,97;   37,800;  -60,000;    0,000;97,80000
 348,98;   31,400;  430,000;    0,000;-398,60000
 349,00;  -15,800; -826,000;    0,000;810,20000
 349,01;    8,000; -410,000;    0,000;418,00000
 349,03;   28,200; -246,000;    0,000;274,20000
 349,04;  -17,800;  262,000;    0,000;-279,80000
 349,05;   27,200; -145,000;    0,000;172,20000
 349,07;  -13,200; -269,000;    0,000;255,80000
 349,08;  -14,200;  -13,000;    0,000;-1,20000
 349,10;   -4,800;   59,000;    0,000;-63,80000
 349,11;  -10,400; -641,000;    0,000;630,60000
 349,13;  -16,200; -316,000;    0,000;299,80000
 349,14;   10,800; -361,000;    0,000;371,80000
 349,16;  -16,800;   64,000;    0,000;-80,80000
 349,17;    4,200; -643,000;    0,000;647,20000
 349,19;   26,000; -558,000;    0,000;584,00000
 349,20;   15,200; -264,000;    0,000;279,20000
 349,22;   -3,800;   46,000;    0,000;-49,80000
 349,23;  -20,800; -786,000;    0,000;765,20000
 349,25;  -32,800; -881,000;    0,000;848,20000
 349,26;   29,400;  529,000;    0,000;-499,60000
 349,27;   18,600;   92,000;    0,000;-73,40000
 349,29;    8,200; -643,000;    0,000;651,20000
 349,30;   -9,800; -273,000;    0,000;263,20000
 349,32;  -16,400;  -81,000;    0,000;64,60000
 349,33;   15,200;  507,000;    0,000;-491,80000
 349,35;    9,600; -770,000;    0,000;779,60000
 349,36;  -29,400; -571,000;    0,000;541,60000
 349,38;   10,000;  -49,000;    0,000;59,00000
 349,39;   18,000;   16,000;    0,000; 2,00000
 349,41;   21,200; -609,000;    0,000;630,20000
 349,42;   -2,600; -345,000;    0,000;342,40000
 349,44;   16,800;   28,000;    0,000;-11,20000
 349,45;    5,400; -408,000;    0,000;413,40000
 349,46;  -18,000; -256,000;    0,000;238,00000
 349,48;   32,600; -312,000;    0,000;344,60000
 349,49;   -4,800;  -29,000;    0,000;24,20000
 349,51;   37,000;  270,000;    0,000;-233,00000
 349,52;  -38,800; -798,000;    0,000;759,20000
 349,54;   49,800; -576,000;    0,000;625,80000
 349,55;   -7,600; -438,000;    0,000;430,40000
 349,57;    8,600; -382,000;    0,000;390,60000
 349,58;   34,400; -395,000;    0,000;429,40000
 349,60;   37,600; -537,000;    0,000;574,60000
 349,61;   37,800;  -62,000;    0,000;99,80000
 349,62;    9,000;  225,000;    0,000;-216,00000
 349,64;  -17,000; -531,000;    0,000;514,00000
 349,65;   40,000;  137,000;    0,000;-97,00000
 349,67;    7,800;  -91,000;    0,000;98,80000
 349,68;   -3,200;  -71,000;    0,000;67,80000
 349,70;   -7,200; -492,000;    0,000;484,80000
 349,71;    0,600;  -17,000;    0,000;17,60000
 349,73;   -7,000; -346,000;    0,000;339,00000
 349,74;   13,600;  115,000;    0,000;-101,40000
 349,76;   -7,200; -370,000;    0,000;362,80000
 349,77;  -10,400; -220,000;    0,000;209,60000
 349,78;   16,600; -145,000;    0,000;161,60000
 349,80;    1,600;  185,000;    0,000;-183,40000
 349,81;   31,400; -503,000;    0,000;534,40000
 349,83;    2,000; -105,000;    0,000;107,00000
 349,84;    2,600;  380,000;    0,000;-377,40000
 349,86;   51,200;  432,000;    0,000;-380,80000
 349,87;   12,600; -270,000;    0,000;282,60000
 349,89;   31,600;  117,000;    0,000;-85,40000
 349,90;   -4,600;  535,000;    0,000;-539,60000
 349,92;   44,600; 1076,000;    0,000;-1031,40000
 349,93;   12,800;  386,000;    0,000;-373,20000
 349,94;   -6,400;  711,000;    0,000;-717,40000
 349,96;   23,000; 1250,000;    0,000;-1227,00000
 349,97;   22,000;  686,000;    0,000;-664,00000
 349,99;    4,400; -516,000;    0,000;520,40000
 350,00;   20,400; -117,000;    0,000;137,40000
 350,02;   27,200; -171,000;    0,000;198,20000
 350,03;   27,000;   25,000;    0,000; 2,00000
 350,05;    1,800; -785,000;    0,000;786,80000
 350,06;   19,400; -434,000;    0,000;453,40000
 350,08;   12,600; -451,000;    0,000;463,60000
 350,09;   -1,600;  283,000;    0,000;-284,60000
 350,10;  -23,800; -464,000;    0,000;440,20000
 350,12;   -2,600;  270,000;    0,000;-272,60000
 350,13;    1,400; -265,000;    0,000;266,40000
 350,15;   27,600;  -13,000;    0,000;40,60000
 350,16;  -23,400; -787,000;    0,000;763,60000
 350,18;    6,800; -246,000;    0,000;252,80000
 350,19;   16,600; -247,000;    0,000;263,60000
 350,21;   27,600;   88,000;    0,000;-60,40000
 350,22;  -47,800; -647,000;    0,000;599,20000
 350,23;   33,000; -585,000;    0,000;618,00000
 350,25;    6,000; -157,000;    0,000;163,00000
 350,26;   30,000;  459,000;    0,000;-429,00000
 350,28;  -23,200; -592,000;    0,000;568,80000
 350,29;   -0,200;   -3,000;    0,000; 2,80000
 350,31;   32,800; -313,000;    0,000;345,80000
 350,32;    1,600;  -28,000;    0,000;29,60000
 350,34;   26,000; -755,000;    0,000;781,00000
 350,35;   14,800;  -64,000;    0,000;78,80000
 350,36;   11,400; -248,000;    0,000;259,40000
 350,38;   10,800;   16,000;    0,000;-5,20000
 350,39;  -25,200; -588,000;    0,000;562,80000
 350,41;   25,600; -509,000;    0,000;534,60000
 350,42;   -8,000;   -8,000;    0,000; 0,00000
 350,44;   35,000;  208,000;    0,000;-173,00000
 350,45;    1,000; -536,000;    0,000;537,00000
 350,47;   27,200; -410,000;    0,000;437,20000
 350,48;   15,200; -499,000;    0,000;514,20000
 350,49;   -0,400; -146,000;    0,000;145,60000
 350,51;    3,000; -530,000;    0,000;533,00000
 350,52;   11,600; -474,000;    0,000;485,60000
 350,54;    3,800;   -3,000;    0,000; 6,80000
 350,55;  -17,800;  177,000;    0,000;-194,80000
 350,57;   20,400; -775,000;    0,000;795,40000
 350,58;   -1,600;  197,000;    0,000;-198,60000
 350,59;  -14,200; -457,000;    0,000;442,80000
 350,61;    8,400;  133,000;    0,000;-124,60000
 350,62;   18,000; -104,000;    0,000;122,00000
 350,64;  -29,000; -447,000;    0,000;418,00000
 350,65;  -21,000; -292,000;    0,000;271,00000
 350,67;   29,000;  168,000;    0,000;-139,00000
 350,68;   14,200; -678,000;    0,000;692,20000
 350,70;   19,000; -474,000;    0,000;493,00000
 350,71;   20,800;  -38,000;    0,000;58,80000
 350,72;   -4,000; -354,000;    0,000;350,00000
 350,74;   12,000; -618,000;    0,000;630,00000
 350,75;    4,400; -319,000;    0,000;323,40000
 350,77;    3,000; -513,000;    0,000;516,00000
 350,78;   42,200; -309,000;    0,000;351,20000
 350,80;   -1,000; -565,000;    0,000;564,00000
 350,81;   34,000;  455,000;    0,000;-421,00000
 350,82;  -33,000; -242,000;    0,000;209,00000
 350,84;   51,400;  420,000;    0,000;-368,60000
 350,85;  -33,800; -495,000;    0,000;461,20000
 350,87;   11,800; -406,000;    0,000;417,80000
 350,88;   14,800; -259,000;    0,000;273,80000
 350,90;    8,000; -101,000;    0,000;109,00000
 350,91;   23,600; -602,000;    0,000;625,60000
 350,92;   21,400; -241,000;    0,000;262,40000
 350,94;  -12,400; -119,000;    0,000;106,60000
 350,95;   17,400;  -19,000;    0,000;36,40000
 350,97;    1,400; -263,000;    0,000;264,40000
 350,98;   16,800; -407,000;    0,000;423,80000
 351,00;    5,200; -217,000;    0,000;222,20000
 351,01;   47,000;  427,000;    0,000;-380,00000
 351,02;    8,200; -772,000;    0,000;780,20000
 351,04;   18,800; -411,000;    0,000;429,80000
 351,05;    4,600; -354,000;    0,000;358,60000
 351,07;   17,800;  270,000;    0,000;-252,20000
 351,08;    1,800; -525,000;    0,000;526,80000
 351,10;    6,400; -108,000;    0,000;114,40000
 351,11;   -6,600; -126,000;    0,000;119,40000
 351,12;    8,800; -225,000;    0,000;233,80000
 351,14;  -17,600; -591,000;    0,000;573,40000
 351,15;   30,600;  312,000;    0,000;-281,40000
 351,17;  -26,600; -250,000;    0,000;223,40000
 351,18;  -11,000;  805,000;    0,000;-816,00000
 351,20;  -18,600; -665,000;    0,000;646,40000
 351,21;   26,000; -319,000;    0,000;345,00000
 351,22;   -2,600; -346,000;    0,000;343,40000
 351,24;  -10,000;   69,000;    0,000;-79,00000
 351,25;   -9,200; -514,000;    0,000;504,80000
 351,27;   37,200; -446,000;    0,000;483,20000
 351,28;   14,400; -174,000;    0,000;188,40000
 351,30;   -7,400;  103,000;    0,000;-110,40000
 351,31;  -15,000; -446,000;    0,000;431,00000
 351,32;   -9,000; -203,000;    0,000;194,00000
 351,34;   18,200;   53,000;    0,000;-34,80000
 351,35;   10,200;  629,000;    0,000;-618,80000
 351,37;   -3,200; -591,000;    0,000;587,80000
 351,38;   17,000; -265,000;    0,000;282,00000
 351,40;  -39,800; -226,000;    0,000;186,20000
 351,41;  -10,400; -369,000;    0,000;358,60000
 351,42;  -20,000; -554,000;    0,000;534,00000
 351,44;  -13,200; -369,000;    0,000;355,80000
 351,45;   18,400; -109,000;    0,000;127,40000
 351,47;   29,000;  -93,000;    0,000;122,00000
 351,48;    1,000; -783,000;    0,000;784,00000
 351,50;   19,600; -521,000;    0,000;540,60000
 351,51;   15,200;  253,000;    0,000;-237,80000
 351,52;   21,200;  226,000;    0,000;-204,80000
 351,54;   -0,400; -625,000;    0,000;624,60000
 351,55;   19,200;  149,000;    0,000;-129,80000
 351,57;    3,200;  -49,000;    0,000;52,20000
 351,58;   22,000; -119,000;    0,000;141,00000
 351,59;   30,800; -361,000;    0,000;391,80000
 351,61;  -28,400;  268,000;    0,000;-296,40000
 351,62;   20,200; -514,000;    0,000;534,20000
 351,64;   -7,600;  130,000;    0,000;-137,60000
 351,65;  -24,400; -474,000;    0,000;449,60000
 351,67;   27,000;  -78,000;    0,000;105,00000
 351,68;   -0,600; -460,000;    0,000;459,40000
 351,69;   16,600; -455,000;    0,000;471,60000
 351,71;    1,600; -341,000;    0,000;342,60000
 351,72;   23,400; -467,000;    0,000;490,40000
 351,74;   11,400; -407,000;    0,000;418,40000
 351,75;   10,400; -156,000;    0,000;166,40000
 351,76;   -8,000; -596,000;    0,000;588,00000
 351,78;   39,200; -396,000;    0,000;435,20000
 351,79;   57,000; -262,000;    0,000;319,00000
 351,81;   15,000; -381,000;    0,000;396,00000
 351,82;  -37,000; -450,000;    0,000;413,00000
 351,84;   29,200; -476,000;    0,000;505,20000
 351,85;   14,800;  -16,000;    0,000;30,80000
 351,86;   55,000;  -73,000;    0,000;128,00000
 351,88;   18,800; -345,000;    0,000;363,80000
 351,89;   33,800; -411,000;    0,000;444,80000
 351,91;   -9,200;   26,000;    0,000;-35,20000
 351,92;  -22,200; -236,000;    0,000;213,80000
 351,93;   33,800; -725,000;    0,000;758,80000
 351,95;   39,800; -246,000;    0,000;285,80000
 351,96;   26,400;   60,000;    0,000;-33,60000
 351,98;    9,400;    1,000;    0,000; 8,40000
 351,99;   -1,400; -520,000;    0,000;518,60000
 352,01;  -28,800; -650,000;    0,000;621,20000
 352,02;    6,200; -289,000;    0,000;295,20000
 352,03;   -5,800; -268,000;    0,000;262,20000
 352,05;   -6,800; -264,000;    0,000;257,20000
 352,06;    4,600; -576,000;    0,000;580,60000
 352,08;  -18,600; -339,000;    0,000;320,40000
 352,09;   50,800;  114,000;    0,000;-63,20000
 352,10;   -9,400; -408,000;    0,000;398,60000
 352,12;   44,000; -282,000;    0,000;326,00000
 352,13;   19,800; -320,000;    0,000;339,80000
 352,15;    6,000; -153,000;    0,000;159,00000
 352,16;   21,000; -193,000;    0,000;214,00000
 352,17;   26,200; -520,000;    0,000;546,20000
 352,19;  -15,200; -183,000;    0,000;167,80000
 352,20;   -1,200; -148,000;    0,000;146,80000
 352,22;  -11,800; -327,000;    0,000;315,20000
 352,23;  -25,200; -420,000;    0,000;394,80000
 352,24;   -5,200; -582,000;    0,000;576,80000
 352,26;   20,400;  429,000;    0,000;-408,60000
 352,27;   -4,200; -490,000;    0,000;485,80000
 352,29;   54,200;  281,000;    0,000;-226,80000
 352,30;   14,800;  188,000;    0,000;-173,20000
 352,32;   40,200; -125,000;    0,000;165,20000
 352,33;  -40,400; -578,000;    0,000;537,60000
 352,34;   30,600; -387,000;    0,000;417,60000
 352,36;  -26,000; -332,000;    0,000;306,00000
 352,37;   38,600;  -92,000;    0,000;130,60000
 352,39;  -17,600; -505,000;    0,000;487,40000
 352,40;    3,400; -489,000;    0,000;492,40000
 352,41;  -11,600; -162,000;    0,000;150,40000
 352,43;   60,800;   84,000;    0,000;-23,20000
 352,44;  -11,400; -476,000;    0,000;464,60000
 352,46;    9,200; -330,000;    0,000;339,20000
 352,47;  -27,800; -189,000;    0,000;161,20000
 352,48;   14,600;  125,000;    0,000;-110,40000
 352,50;   11,200; -274,000;    0,000;285,20000
 352,51;   14,400; -440,000;    0,000;454,40000
 352,53;  -19,200; -505,000;    0,000;485,80000
 352,54;  -16,200; -330,000;    0,000;313,80000
 352,55;   -2,400;  -84,000;    0,000;81,60000
 352,57;   26,000; -429,000;    0,000;455,00000
 352,58;   -7,800; -288,000;    0,000;280,20000
 352,60;  -11,200; -282,000;    0,000;270,80000
 352,61;    8,800; -171,000;    0,000;179,80000
 352,62;   14,600; -396,000;    0,000;410,60000
 352,64;   -9,800; -421,000;    0,000;411,20000
 352,65;   40,400; -188,000;    0,000;228,40000
 352,67;   20,600; -825,000;    0,000;845,60000
 352,68;   -1,200; -277,000;    0,000;275,80000
 352,69;  -30,200; -302,000;    0,000;271,80000
 352,71;    9,600; -106,000;    0,000;115,60000
 352,72;   20,200; -508,000;    0,000;528,20000
 352,74;    6,200; -596,000;    0,000;602,20000
 352,75;    7,200; -393,000;    0,000;400,20000
 352,76;   31,000; -191,000;    0,000;222,00000
 352,78;    7,400; -443,000;    0,000;450,40000
 352,79;   39,800; -404,000;    0,000;443,80000
 352,81;    3,600; -330,000;    0,000;333,60000
 352,82;   33,200;  244,000;    0,000;-210,80000
 352,83;    6,600; -550,000;    0,000;556,60000
 352,85;  -16,400;   21,000;    0,000;-37,40000
 352,86;   10,000; -218,000;    0,000;228,00000
 352,88;   14,200;  115,000;    0,000;-100,80000
 352,89;    0,800; -324,000;    0,000;324,80000
 352,90;   15,000; -321,000;    0,000;336,00000
 352,92;    4,400;  -50,000;    0,000;54,40000
 352,93;   45,000; -463,000;    0,000;508,00000
 352,94;    1,800; -665,000;    0,000;666,80000
 352,96;   39,800; -266,000;    0,000;305,80000
 352,97;  -29,200; -619,000;    0,000;589,80000
 352,99;   -3,200; -253,000;    0,000;249,80000
 353,00;   26,200;  -12,000;    0,000;38,20000
 353,01;   30,800; -102,000;    0,000;132,80000
 353,03;   13,000;  299,000;    0,000;-286,00000
 353,04;  -13,000; -369,000;    0,000;356,00000
 353,06;    6,000; -405,000;    0,000;411,00000
 353,07;   48,600; -428,000;    0,000;476,60000
 353,08;  -36,000;  -89,000;    0,000;53,00000
 353,10;   -0,400; -228,000;    0,000;227,60000
 353,11;   17,000; -317,000;    0,000;334,00000
 353,13;  -12,000; -266,000;    0,000;254,00000
 353,14;   22,400;   32,000;    0,000;-9,60000
 353,15;   23,800; -102,000;    0,000;125,80000
 353,17;   -1,200; -412,000;    0,000;410,80000
 353,18;   -6,200; -244,000;    0,000;237,80000
 353,20;    6,400; -171,000;    0,000;177,40000
 353,21;   25,600;  -44,000;    0,000;69,60000
 353,22;  -17,000; -435,000;    0,000;418,00000
 353,24;   -8,000; -288,000;    0,000;280,00000
 353,25;   -7,200;  -48,000;    0,000;40,80000
 353,26;   10,800; -307,000;    0,000;317,80000
 353,28;   40,600; -444,000;    0,000;484,60000
 353,29;    3,200; -397,000;    0,000;400,20000
 353,31;   -1,200; -224,000;    0,000;222,80000
 353,32;   36,600;  -44,000;    0,000;80,60000
 353,33;  -30,200; -484,000;    0,000;453,80000
 353,35;   25,800; -310,000;    0,000;335,80000
 353,36;   -3,600; -325,000;    0,000;321,40000
 353,38;   -8,200;  -24,000;    0,000;15,80000
 353,39;   22,200; -460,000;    0,000;482,20000
 353,40;    6,600;  -40,000;    0,000;46,60000
 353,42;   -8,400; -239,000;    0,000;230,60000
 353,43;   19,800;  362,000;    0,000;-342,20000
 353,44;  -17,600; -318,000;    0,000;300,40000
 353,46;   29,400; -170,000;    0,000;199,40000
 353,47;    6,000; -404,000;    0,000;410,00000
 353,49;   23,200;  125,000;    0,000;-101,80000
 353,50;  -19,000; -411,000;    0,000;392,00000
 353,51;   40,600;   37,000;    0,000; 3,60000
 353,53;   15,600;  -57,000;    0,000;72,60000
 353,54;  -14,200; -358,000;    0,000;343,80000
 353,56;    8,000; -262,000;    0,000;270,00000
 353,57;  -28,000; -269,000;    0,000;241,00000
 353,58;  -13,000; -214,000;    0,000;201,00000
 353,60;   45,400;   26,000;    0,000;19,40000
 353,61;    3,600; -439,000;    0,000;442,60000
 353,62;   21,400;   81,000;    0,000;-59,60000
 353,64;  -48,200; -105,000;    0,000;56,80000
 353,65;   26,000; -501,000;    0,000;527,00000
 353,67;   11,400; -367,000;    0,000;378,40000
 353,68;   12,200; -239,000;    0,000;251,20000
 353,69;    8,800; -244,000;    0,000;252,80000
 353,71;   -6,800; -180,000;    0,000;173,20000
 353,72;   33,000;    7,000;    0,000;26,00000
 353,73;    9,800; -333,000;    0,000;342,80000
 353,75;   39,800; -148,000;    0,000;187,80000
 353,76;  -18,800; -252,000;    0,000;233,20000
 353,78;   17,000; -440,000;    0,000;457,00000
 353,79;    2,600; -266,000;    0,000;268,60000
 353,80;   -8,000; -171,000;    0,000;163,00000
 353,82;   10,000; -104,000;    0,000;114,00000
 353,83;  -41,200; -694,000;    0,000;652,80000
 353,84;    0,200; -248,000;    0,000;248,20000
 353,86;   30,200; -549,000;    0,000;579,20000
 353,87;   20,200;   59,000;    0,000;-38,80000
 353,89;  -25,200; -282,000;    0,000;256,80000
 353,90;   16,400;   97,000;    0,000;-80,60000
 353,91;   -6,800; -274,000;    0,000;267,20000
 353,93;    3,800; -402,000;    0,000;405,80000
 353,94;    9,600; -445,000;    0,000;454,60000
 353,95;   10,600; -467,000;    0,000;477,60000
 353,97;   -1,600;   96,000;    0,000;-97,60000
 353,98;   27,400; -299,000;    0,000;326,40000
 354,00;   16,800; -309,000;    0,000;325,80000
 354,01;   28,400; -414,000;    0,000;442,40000
 354,02;  -25,200; -178,000;    0,000;152,80000
 354,04;   12,800; -150,000;    0,000;162,80000
 354,05;   -0,200; -558,000;    0,000;557,80000
 354,06;   19,600; -296,000;    0,000;315,60000
 354,08;    6,800; -377,000;    0,000;383,80000
 354,09;   37,000; -385,000;    0,000;422,00000
 354,11;   -2,000; -417,000;    0,000;415,00000
 354,12;   58,800; -247,000;    0,000;305,80000
 354,13;   31,400; -146,000;    0,000;177,40000
 354,15;    6,800; -194,000;    0,000;200,80000
 354,16;   24,600;   97,000;    0,000;-72,40000
 354,17;  -18,800;  292,000;    0,000;-310,80000
 354,19;  -17,800; -744,000;    0,000;726,20000
 354,20;    1,600; -283,000;    0,000;284,60000
 354,21;   18,200; -515,000;    0,000;533,20000
 354,23;   39,200; -179,000;    0,000;218,20000
 354,24;  -15,600; -622,000;    0,000;606,40000
 354,26;   22,000; -150,000;    0,000;172,00000
 354,27;   24,600; -484,000;    0,000;508,60000
 354,28;   18,800; -531,000;    0,000;549,80000
 354,30;  -13,400;   86,000;    0,000;-99,40000
 354,31;   27,000;  303,000;    0,000;-276,00000
 354,32;   -9,400; -633,000;    0,000;623,60000
 354,34;    4,600; -302,000;    0,000;306,60000
 354,35;  -27,800; -282,000;    0,000;254,20000
 354,37;   12,600; -161,000;    0,000;173,60000
 354,38;   -3,600; -469,000;    0,000;465,40000
 354,39;   14,200; -544,000;    0,000;558,20000
 354,41;   -6,800; -223,000;    0,000;216,20000
 354,42;   -7,800;  -43,000;    0,000;35,20000
 354,43;    2,800; -263,000;    0,000;265,80000
 354,45;   -3,800; -278,000;    0,000;274,20000
 354,46;   -1,800; -264,000;    0,000;262,20000
 354,47;    5,200; -353,000;    0,000;358,20000
 354,49;    7,400;  -48,000;    0,000;55,40000
 354,50;   16,400; -405,000;    0,000;421,40000
 354,51;   23,000; -281,000;    0,000;304,00000
 354,53;    0,800; -404,000;    0,000;404,80000
 354,54;    4,400; -541,000;    0,000;545,40000
 354,56;  -16,000; -260,000;    0,000;244,00000
 354,57;   -7,800;  117,000;    0,000;-124,80000
 354,58;   36,600; -522,000;    0,000;558,60000
 354,60;  -13,400; -234,000;    0,000;220,60000
 354,61;  -24,600; -262,000;    0,000;237,40000
 354,62;  -25,800;    6,000;    0,000;-31,80000
 354,64;   20,600;  245,000;    0,000;-224,40000
 354,65;   16,000; -223,000;    0,000;239,00000
 354,66;   15,400;  203,000;    0,000;-187,60000
 354,68;  -19,000;  419,000;    0,000;-438,00000
 354,69;   -3,400; -321,000;    0,000;317,60000
 354,71;   33,800; -426,000;    0,000;459,80000
 354,72;    6,000; -271,000;    0,000;277,00000
 354,73;  -16,200; -393,000;    0,000;376,80000
 354,75;   29,200;  -28,000;    0,000;57,20000
 354,76;   -6,400; -567,000;    0,000;560,60000
 354,77;   -1,400; -463,000;    0,000;461,60000
 354,79;  -10,400; -248,000;    0,000;237,60000
 354,80;   -2,000; -138,000;    0,000;136,00000
 354,81;  -11,000; -248,000;    0,000;237,00000
 354,83;   36,000; -223,000;    0,000;259,00000
 354,84;    4,800; -128,000;    0,000;132,80000
 354,85;   -1,200; -280,000;    0,000;278,80000
 354,87;  -15,800; -241,000;    0,000;225,20000
 354,88;   44,800;  -42,000;    0,000;86,80000
 354,90;    7,400; -292,000;    0,000;299,40000
 354,91;   25,000;  224,000;    0,000;-199,00000
 354,92;   -8,000; -450,000;    0,000;442,00000
 354,94;  -32,200; -326,000;    0,000;293,80000
 354,95;  -21,000;  -55,000;    0,000;34,00000
 354,96;   48,200; -172,000;    0,000;220,20000
 354,98;   -2,800; -286,000;    0,000;283,20000
 354,99;   33,600; -363,000;    0,000;396,60000
 355,00;   -4,000; -235,000;    0,000;231,00000
 355,02;  -49,200; -523,000;    0,000;473,80000
 355,03;   10,400; -480,000;    0,000;490,40000
 355,04;   46,800; -201,000;    0,000;247,80000
 355,06;   -1,200;   -8,000;    0,000; 6,80000
 355,07;   34,200;   -3,000;    0,000;37,20000
 355,08;   24,800; -354,000;    0,000;378,80000
 355,10;   29,000; -284,000;    0,000;313,00000
 355,11;    4,400;  105,000;    0,000;-100,60000
 355,12;  -14,200;  328,000;    0,000;-342,20000
 355,14;    7,600; -668,000;    0,000;675,60000
 355,15;    4,000; -439,000;    0,000;443,00000
 355,17;   -0,200; -298,000;    0,000;297,80000
 355,18;   -5,800;  283,000;    0,000;-288,80000
 355,19;    7,000; -398,000;    0,000;405,00000
 355,21;   16,200; -180,000;    0,000;196,20000
 355,22;   -3,200; -530,000;    0,000;526,80000
 355,23;   14,600; -221,000;    0,000;235,60000
 355,25;   10,800; -385,000;    0,000;395,80000
 355,26;   47,600; -129,000;    0,000;176,60000
 355,27;   31,400; -554,000;    0,000;585,40000
 355,29;  -12,800;   27,000;    0,000;-39,80000
 355,30;   11,000;  243,000;    0,000;-232,00000
 355,31;   30,200; -470,000;    0,000;500,20000
 355,33;   32,800;  357,000;    0,000;-324,20000
 355,34;   39,000;   17,000;    0,000;22,00000
 355,35;    4,800; -407,000;    0,000;411,80000
 355,37;   31,600;  232,000;    0,000;-200,40000
 355,38;   -7,600; -123,000;    0,000;115,40000
 355,39;   50,800;  301,000;    0,000;-250,20000
 355,41;   14,600; -148,000;    0,000;162,60000
 355,42;   24,800;   23,000;    0,000; 1,80000
 355,43;    8,600;  -58,000;    0,000;66,60000
 355,45;   17,800; -141,000;    0,000;158,80000
 355,46;   20,800; -556,000;    0,000;576,80000
 355,47;   19,200;  110,000;    0,000;-90,80000
 355,49;  -32,600; -177,000;    0,000;144,40000
 355,50;   37,400;  823,000;    0,000;-785,60000
 355,52;   13,000; -327,000;    0,000;340,00000
 355,53;    4,200; -304,000;    0,000;308,20000
 355,54;  -13,400; -387,000;    0,000;373,60000
 355,56;   -6,200;  100,000;    0,000;-106,20000
 355,57;   -6,800; -227,000;    0,000;220,20000
 355,58;   16,600; -401,000;    0,000;417,60000
 355,60;   47,000; -284,000;    0,000;331,00000
 355,61;   10,600;    1,000;    0,000; 9,60000
 355,62;  -16,000; -506,000;    0,000;490,00000
 355,64;   27,400; -427,000;    0,000;454,40000
 355,65;   -3,800; -303,000;    0,000;299,20000
 355,66;   35,400;  286,000;    0,000;-250,60000
 355,68;   19,400; -404,000;    0,000;423,40000
 355,69;   22,600;   79,000;    0,000;-56,40000
 355,70;  -11,400; -302,000;    0,000;290,60000
 355,72;   33,000; -283,000;    0,000;316,00000
 355,73;   -3,000; -593,000;    0,000;590,00000
 355,74;    9,400; -274,000;    0,000;283,40000
 355,76;  -10,800; -273,000;    0,000;262,20000
 355,77;   23,600;  -71,000;    0,000;94,60000
 355,78;    5,200; -436,000;    0,000;441,20000
 355,80;    6,800; -162,000;    0,000;168,80000
 355,81;   -9,800; -279,000;    0,000;269,20000
 355,82;    3,800; -364,000;    0,000;367,80000
 355,84;  -15,200; -262,000;    0,000;246,80000
 355,85;    2,600; -302,000;    0,000;304,60000
 355,86;  -46,600; -357,000;    0,000;310,40000
 355,88;   46,200; -223,000;    0,000;269,20000
 355,89;  -10,800; -290,000;    0,000;279,20000
 355,90;   10,000; -197,000;    0,000;207,00000
 355,92;   -1,800; -315,000;    0,000;313,20000
 355,93;  -19,800; -196,000;    0,000;176,20000
 355,94;   44,000; -412,000;    0,000;456,00000
 355,96;  -13,200;   81,000;    0,000;-94,20000
 355,97;    6,000; -395,000;    0,000;401,00000
 355,98;  -31,400; -431,000;    0,000;399,60000
 356,00;   21,600; -450,000;    0,000;471,60000
 356,01;   14,600; -324,000;    0,000;338,60000
 356,02;   19,600; -108,000;    0,000;127,60000
 356,04;    4,200; -215,000;    0,000;219,20000
 356,05;    8,600;   22,000;    0,000;-13,40000
 356,06;    3,200; -255,000;    0,000;258,20000
 356,08;  -11,400; -520,000;    0,000;508,60000
 356,09;  -29,400; -302,000;    0,000;272,60000
 356,10;  -21,800; -680,000;    0,000;658,20000
 356,12;   28,000;    1,000;    0,000;27,00000
 356,13;   32,000; -418,000;    0,000;450,00000
 356,14;  -30,600; -272,000;    0,000;241,40000
 356,16;   -6,400; -235,000;    0,000;228,60000
 356,17;   12,400; -370,000;    0,000;382,40000
 356,18;  -13,800; -334,000;    0,000;320,20000
 356,20;    9,600;  -85,000;    0,000;94,60000
 356,21;   -4,800;   -8,000;    0,000; 3,20000
 356,22;   -8,000; -453,000;    0,000;445,00000
 356,24;  -13,600; -265,000;    0,000;251,40000
 356,25;   -5,600; -165,000;    0,000;159,40000
 356,26;   15,400; -281,000;    0,000;296,40000
 356,28;   19,600; -412,000;    0,000;431,60000
 356,29;  -22,000;  -77,000;    0,000;55,00000
 356,30;  -12,400; -138,000;    0,000;125,60000
 356,31;    8,200; -435,000;    0,000;443,20000
 356,33;    7,200; -282,000;    0,000;289,20000
 356,34;  -47,600; -508,000;    0,000;460,40000
 356,35;    9,800; -244,000;    0,000;253,80000
 356,37;   30,400; -379,000;    0,000;409,40000
 356,38;   16,200; -159,000;    0,000;175,20000
 356,39;    1,800;   69,000;    0,000;-67,20000
 356,41;    3,600; -392,000;    0,000;395,60000
 356,42;  -19,000; -234,000;    0,000;215,00000
 356,43;   23,400;   57,000;    0,000;-33,60000
 356,45;  -19,200; -612,000;    0,000;592,80000
 356,46;   11,800; -179,000;    0,000;190,80000
 356,47;   -2,400; -428,000;    0,000;425,60000
 356,49;   21,800; -275,000;    0,000;296,80000
 356,50;  -23,600;   64,000;    0,000;-87,60000
 356,51;   40,800; -252,000;    0,000;292,80000
 356,53;    6,800; -520,000;    0,000;526,80000
 356,54;   20,200; -178,000;    0,000;198,20000
 356,55;    5,800; -552,000;    0,000;557,80000
 356,57;   16,600;  -28,000;    0,000;44,60000
 356,58;   -2,800;  460,000;    0,000;-462,80000
 356,59;    0,400; -318,000;    0,000;318,40000
 356,61;   -0,600; -301,000;    0,000;300,40000
 356,62;   21,800; -470,000;    0,000;491,80000
 356,63;   -6,800; -584,000;    0,000;577,20000
 356,65;   12,200; -122,000;    0,000;134,20000
 356,66;   46,400; -175,000;    0,000;221,40000
 356,67;   21,600; -272,000;    0,000;293,60000
 356,68;  -42,000; -597,000;    0,000;555,00000
 356,70;   -6,200;   14,000;    0,000;-20,20000
 356,71;    2,000; -285,000;    0,000;287,00000
 356,72;   11,000; -165,000;    0,000;176,00000
 356,74;   30,400; -434,000;    0,000;464,40000
 356,75;   33,400;  -46,000;    0,000;79,40000
 356,76;    9,800;  -39,000;    0,000;48,80000
 356,78;   -2,800;  -56,000;    0,000;53,20000
 356,79;  -34,600; -659,000;    0,000;624,40000
 356,80;   25,800; -279,000;    0,000;304,80000
 356,82;   14,600;  -87,000;    0,000;101,60000
 356,83;   28,000;  -13,000;    0,000;41,00000
 356,84;  -19,400; -482,000;    0,000;462,60000
 356,86;    2,400; -427,000;    0,000;429,40000
 356,87;    3,000; -288,000;    0,000;291,00000
 356,88;    4,400;   71,000;    0,000;-66,60000
 356,89;  -12,400; -355,000;    0,000;342,60000
 356,91;   -4,000; -549,000;    0,000;545,00000
 356,92;    9,200; -460,000;    0,000;469,20000
 356,93;   12,200;  546,000;    0,000;-533,80000
 356,95;   12,600; -743,000;    0,000;755,60000
 356,96;  -13,000;  269,000;    0,000;-282,00000
 356,97;  -18,600;  379,000;    0,000;-397,60000
 356,99;    2,800; -272,000;    0,000;274,80000
 357,00;  -23,600; -279,000;    0,000;255,40000
 357,01;   25,600; -405,000;    0,000;430,60000
 357,03;  -31,800; -242,000;    0,000;210,20000
 357,04;    4,800; -194,000;    0,000;198,80000
 357,05;   -1,200; -306,000;    0,000;304,80000
 357,07;   37,800;  151,000;    0,000;-113,20000
 357,08;    0,000; -307,000;    0,000;307,00000
 357,09;   -6,200; -189,000;    0,000;182,80000
 357,10;  -21,400; -109,000;    0,000;87,60000
 357,12;  -10,400; -299,000;    0,000;288,60000
 357,13;   -9,600; -501,000;    0,000;491,40000
 357,14;  -15,600;  -41,000;    0,000;25,40000
 357,16;  -19,800; -709,000;    0,000;689,20000
 357,17;   42,800; -384,000;    0,000;426,80000
 357,18;    4,000; -612,000;    0,000;616,00000
 357,20;    8,800; -238,000;    0,000;246,80000
 357,21;   -2,400;  -89,000;    0,000;86,60000
 357,22;    8,800; -476,000;    0,000;484,80000
 357,24;    2,600; -602,000;    0,000;604,60000
 357,25;    5,600;  -72,000;    0,000;77,60000
 357,26;  -49,200; -109,000;    0,000;59,80000
 357,27;    2,800;  -82,000;    0,000;84,80000
 357,29;   10,600;  176,000;    0,000;-165,40000
 357,30;   16,000; -321,000;    0,000;337,00000
 357,31;    7,800; -332,000;    0,000;339,80000
 357,33;   19,000; -532,000;    0,000;551,00000
 357,34;  -11,600; -131,000;    0,000;119,40000
 357,35;  -11,000; -404,000;    0,000;393,00000
 357,37;    5,200; -195,000;    0,000;200,20000
 357,38;  -28,800; -504,000;    0,000;475,20000
 357,39;   34,800; -340,000;    0,000;374,80000
 357,40;   -1,800; -113,000;    0,000;111,20000
 357,42;  -16,200; -272,000;    0,000;255,80000
 357,43;   11,200; -421,000;    0,000;432,20000
 357,44;   -7,400; -346,000;    0,000;338,60000
 357,46;  -31,400;  -80,000;    0,000;48,60000
 357,47;  -11,200; -133,000;    0,000;121,80000
 357,48;   39,200; -286,000;    0,000;325,20000
 357,50;  -12,000; -459,000;    0,000;447,00000
 357,51;  -13,400;  -31,000;    0,000;17,60000
 357,52;  -15,800; -466,000;    0,000;450,20000
 357,53;   -3,800; -480,000;    0,000;476,20000
 357,55;   93,600; -163,000;    0,000;256,60000
 357,56;   40,400; -139,000;    0,000;179,40000
 357,57;  -21,400;   14,000;    0,000;-35,40000
 357,59;   54,600;  123,000;    0,000;-68,40000
 357,60;  -17,800; -132,000;    0,000;114,20000
 357,61;   -7,000; -259,000;    0,000;252,00000
 357,63;  -17,200; -334,000;    0,000;316,80000
 357,64;   -1,000; -375,000;    0,000;374,00000
 357,65;   -4,600; -389,000;    0,000;384,40000
 357,66;   -7,800; -418,000;    0,000;410,20000
 357,68;   -9,400; -398,000;    0,000;388,60000
 357,69;   27,200; -291,000;    0,000;318,20000
 357,70;   35,000; -494,000;    0,000;529,00000
 357,72;    1,800; -530,000;    0,000;531,80000
 357,73;   23,200; -747,000;    0,000;770,20000
 357,74;   10,600; -315,000;    0,000;325,60000
 357,75;  -18,400; -216,000;    0,000;197,60000
 357,77;   32,800; -311,000;    0,000;343,80000
 357,78;  -15,800; -713,000;    0,000;697,20000
 357,79;   -3,600; -279,000;    0,000;275,40000
 357,81;  -24,600;   42,000;    0,000;-66,60000
 357,82;   22,400; -178,000;    0,000;200,40000
 357,83;   21,400;   12,000;    0,000; 9,40000
 357,85;   16,800;  150,000;    0,000;-133,20000
 357,86;    4,400; -552,000;    0,000;556,40000
 357,87;    8,800;  -15,000;    0,000;23,80000
 357,88;   44,600; -587,000;    0,000;631,60000
 357,90;    7,400; -122,000;    0,000;129,40000
 357,91;   17,800;   25,000;    0,000;-7,20000
 357,92;    1,000; -416,000;    0,000;417,00000
 357,94;    2,000; -386,000;    0,000;388,00000
 357,95;   20,400;  201,000;    0,000;-180,60000
 357,96;   22,800;  -81,000;    0,000;103,80000
 357,97;   20,800;  161,000;    0,000;-140,20000
 357,99;   -3,200; -258,000;    0,000;254,80000
 358,00;    7,800;   25,000;    0,000;-17,20000
 358,01;   -4,400; -704,000;    0,000;699,60000
 358,03;  -27,000; -466,000;    0,000;439,00000
 358,04;   11,800;   72,000;    0,000;-60,20000
 358,05;   20,200; -349,000;    0,000;369,20000
 358,06;   16,400;  -62,000;    0,000;78,40000
 358,08;   37,000;  -32,000;    0,000;69,00000
 358,09;    3,800; -369,000;    0,000;372,80000
 358,10;    2,400;  -94,000;    0,000;96,40000
 358,12;   39,800; -167,000;    0,000;206,80000
 358,13;   17,200; -171,000;    0,000;188,20000
 358,14;   -8,800; -188,000;    0,000;179,20000
 358,15;   17,200; -112,000;    0,000;129,20000
 358,17;   -4,200; -323,000;    0,000;318,80000
 358,18;  -19,200; -197,000;    0,000;177,80000
 358,19;   -3,000; -672,000;    0,000;669,00000
 358,21;   16,200; -126,000;    0,000;142,20000
 358,22;   13,800; -330,000;    0,000;343,80000
 358,23;    9,200; -145,000;    0,000;154,20000
 358,24;  -16,200; -299,000;    0,000;282,80000
 358,26;   36,600;   94,000;    0,000;-57,40000
 358,27;   28,000; -105,000;    0,000;133,00000
 358,28;   41,600; -267,000;    0,000;308,60000
 358,30;  -10,800;   37,000;    0,000;-47,80000
 358,31;  -14,800; -295,000;    0,000;280,20000
 358,32;   -5,600;   61,000;    0,000;-66,60000
 358,33;   21,200;  -42,000;    0,000;63,20000
 358,35;   -9,400; -406,000;    0,000;396,60000
 358,36;    3,800; -163,000;    0,000;166,80000
 358,37;  -37,200; -404,000;    0,000;366,80000
 358,39;   22,200;  -43,000;    0,000;65,20000
 358,40;    7,200; -309,000;    0,000;316,20000
 358,41;    0,400; -207,000;    0,000;207,40000
 358,42;   -6,000;   60,000;    0,000;-66,00000
 358,44;    5,600; -242,000;    0,000;247,60000
 358,45;   33,400; -208,000;    0,000;241,40000
 358,46;    1,400;  -86,000;    0,000;87,40000
 358,48;  -22,200; -450,000;    0,000;427,80000
 358,49;   25,000;  144,000;    0,000;-119,00000
 358,50;  -13,000; -135,000;    0,000;122,00000
 358,51;   21,200;  -78,000;    0,000;99,20000
 358,53;   -6,800; -495,000;    0,000;488,20000
 358,54;  -17,800; -335,000;    0,000;317,20000
 358,55;   -2,400; -420,000;    0,000;417,60000
 358,56;   23,200; -465,000;    0,000;488,20000
 358,58;    5,400;   33,000;    0,000;-27,60000
 358,59;   23,800;   33,000;    0,000;-9,20000
 358,60;   -3,200; -380,000;    0,000;376,80000
 358,62;   13,400; -364,000;    0,000;377,40000
 358,63;    4,200; -309,000;    0,000;313,20000
 358,64;    6,800; -237,000;    0,000;243,80000
 358,65;   11,600; -232,000;    0,000;243,60000
 358,67;    8,200; -166,000;    0,000;174,20000
 358,68;   -3,000; -678,000;    0,000;675,00000
 358,69;   49,800; -244,000;    0,000;293,80000
 358,70;  -14,600; -407,000;    0,000;392,40000
 358,72;  -19,000; -262,000;    0,000;243,00000
 358,73;   11,400; -115,000;    0,000;126,40000
 358,74;   22,400; -265,000;    0,000;287,40000
 358,76;  -32,600; -218,000;    0,000;185,40000
 358,77;  -16,200; -239,000;    0,000;222,80000
 358,78;  -33,600; -575,000;    0,000;541,40000
 358,79;   18,800;  273,000;    0,000;-254,20000
 358,81;   -1,800; -365,000;    0,000;363,20000
 358,82;   11,000; -217,000;    0,000;228,00000
 358,83;  -40,000; -324,000;    0,000;284,00000
 358,84;   19,400; -315,000;    0,000;334,40000
 358,86;   25,600;   24,000;    0,000; 1,60000
 358,87;    7,200; -356,000;    0,000;363,20000
 358,88;  -22,000;  -85,000;    0,000;63,00000
 358,90;   -0,600; -210,000;    0,000;209,40000
 358,91;   -7,200; -162,000;    0,000;154,80000
 358,92;   43,800;  202,000;    0,000;-158,20000
 358,93;    3,800; -186,000;    0,000;189,80000
 358,95;   21,000; -102,000;    0,000;123,00000
 358,96;  -17,000; -227,000;    0,000;210,00000
 358,97;  -15,200;   57,000;    0,000;-72,20000
 358,98;   11,600; -115,000;    0,000;126,60000
 359,00;   31,000;  469,000;    0,000;-438,00000
 359,01;    8,800;   51,000;    0,000;-42,20000
 359,02;   30,800; -327,000;    0,000;357,80000
 359,03;   26,400;  106,000;    0,000;-79,60000
 359,05;   -3,400; -241,000;    0,000;237,60000
 359,06;  -33,200; -298,000;    0,000;264,80000
 359,07;   -5,600; -246,000;    0,000;240,40000
 359,09;  -10,800; -526,000;    0,000;515,20000
 359,10;   18,400;  273,000;    0,000;-254,60000
 359,11;   -7,200;  321,000;    0,000;-328,20000
 359,12;   -1,400;  -75,000;    0,000;73,60000
 359,14;  -27,800; -465,000;    0,000;437,20000
 359,15;   23,800; -155,000;    0,000;178,80000
 359,16;  -36,200; -390,000;    0,000;353,80000
 359,17;   47,200; -237,000;    0,000;284,20000
 359,19;  -13,600; -120,000;    0,000;106,40000
 359,20;    0,000;  130,000;    0,000;-130,00000
 359,21;   24,000; -226,000;    0,000;250,00000
 359,22;    4,800;   61,000;    0,000;-56,20000
 359,24;    7,600; -271,000;    0,000;278,60000
 359,25;   18,400;   82,000;    0,000;-63,60000
 359,26;    4,200; -203,000;    0,000;207,20000
 359,27;    4,600;   47,000;    0,000;-42,40000
 359,29;  -12,800;   34,000;    0,000;-46,80000
 359,30;    0,200; -157,000;    0,000;157,20000
 359,31;    9,000; -285,000;    0,000;294,00000
 359,33;   21,200; -181,000;    0,000;202,20000
 359,34;   11,200;  107,000;    0,000;-95,80000
 359,35;  -12,600;  221,000;    0,000;-233,60000
 359,36;   42,200;  245,000;    0,000;-202,80000
 359,38;   -5,000;  -86,000;    0,000;81,00000
 359,39;   17,600; -295,000;    0,000;312,60000
 359,40;    3,200; -162,000;    0,000;165,20000
 359,41;    3,800; -278,000;    0,000;281,80000
 359,43;    2,800;   35,000;    0,000;-32,20000
 359,44;   -8,800;   99,000;    0,000;-107,80000
 359,45;   39,200;  355,000;    0,000;-315,80000
 359,46;    9,000; -207,000;    0,000;216,00000
 359,48;  -28,400; -183,000;    0,000;154,60000
 359,49;   21,200;   -7,000;    0,000;28,20000
 359,50;  -14,200;  184,000;    0,000;-198,20000
 359,51;   -2,800;   57,000;    0,000;-59,80000
 359,53;   27,400;  345,000;    0,000;-317,60000
 359,54;  -25,800;   28,000;    0,000;-53,80000
 359,55;    9,600;  121,000;    0,000;-111,40000
 359,56;   18,800; -498,000;    0,000;516,80000
 359,58;   26,200;  213,000;    0,000;-186,80000
 359,59;    4,800; -180,000;    0,000;184,80000
 359,60;   27,800;  232,000;    0,000;-204,20000
 359,61;   -5,800; -148,000;    0,000;142,20000
 359,63;   -1,400;  225,000;    0,000;-226,40000
 359,64;   21,800; -138,000;    0,000;159,80000
 359,65;   18,800;  710,000;    0,000;-691,20000
 359,66;    9,800;  144,000;    0,000;-134,20000
 359,68;   12,800; -256,000;    0,000;268,80000
 359,69;  -13,600; -246,000;    0,000;232,40000
 359,70;   26,600;  501,000;    0,000;-474,40000
 359,71;   45,600;  -21,000;    0,000;66,60000
 359,73;  -16,400;  364,000;    0,000;-380,40000
 359,74;   16,600;  486,000;    0,000;-469,40000
 359,75;   31,800;  469,000;    0,000;-437,20000
 359,76;    8,800;   62,000;    0,000;-53,20000
 359,78;   22,200;  918,000;    0,000;-895,80000
 359,79;   25,200;  460,000;    0,000;-434,80000
 359,80;   22,400;   87,000;    0,000;-64,60000
 359,81;   21,200; -226,000;    0,000;247,20000
 359,83;   11,000;  515,000;    0,000;-504,00000
 359,84;   30,200; -145,000;    0,000;175,20000
 359,85;  -15,000;  292,000;    0,000;-307,00000
 359,86;   13,600;  285,000;    0,000;-271,40000
 359,88;   12,000;  427,000;    0,000;-415,00000
 359,89;   -7,200;  329,000;    0,000;-336,20000
 359,90;   32,800; 1208,000;    0,000;-1175,20000
 359,91;   22,400;  244,000;    0,000;-221,60000
 359,93;   23,600;  495,000;    0,000;-471,40000
 359,94;   11,200; -227,000;    0,000;238,20000
 359,95;   21,600;  479,000;    0,000;-457,40000
 359,96;    9,600; -134,000;    0,000;143,60000
 359,98;   32,600;  132,000;    0,000;-99,40000
 359,99;    1,600;  313,000;    0,000;-311,40000
 360,00;   -7,800;  815,000;    0,000;-822,80000
 360,01;   16,400;  271,000;    0,000;-254,60000
 360,03;   18,800;  297,000;    0,000;-278,20000
 360,04;   11,200;  412,000;    0,000;-400,80000
 360,05;   24,200;  485,000;    0,000;-460,80000
 360,06;   24,600;  -51,000;    0,000;75,60000
 360,08;   11,000; 1788,000;    0,000;-1777,00000
 360,09;   25,400;  -90,000;    0,000;115,40000
 360,10;   -2,800;  162,000;    0,000;-164,80000
 360,11;  -43,000;  444,000;    0,000;-487,00000
 360,13;   -2,000;  135,000;    0,000;-137,00000
 360,14;    7,800;  -74,000;    0,000;81,80000
 360,15;   29,200;  543,000;    0,000;-513,80000
 360,16;   23,400;  271,000;    0,000;-247,60000
 360,17;   34,600;  430,000;    0,000;-395,40000
 360,19;   27,200; -117,000;    0,000;144,20000
 360,20;    2,600;  389,000;    0,000;-386,40000
 360,21;  -22,000;   31,000;    0,000;-53,00000
 360,22;   10,600;  726,000;    0,000;-715,40000
 360,24;   18,000;  269,000;    0,000;-251,00000
 360,25;   35,200;   38,000;    0,000;-2,80000
 360,26;   24,000;   -2,000;    0,000;26,00000
 360,27;   38,400;  656,000;    0,000;-617,60000
 360,29;   23,000; -327,000;    0,000;350,00000
 360,30;   -7,400;  431,000;    0,000;-438,40000
 360,31;   14,600;  167,000;    0,000;-152,40000
 360,32;  -10,000;  117,000;    0,000;-127,00000
 360,34;    8,600; -160,000;    0,000;168,60000
 360,35;    3,600;  233,000;    0,000;-229,40000
 360,36;   42,000;  207,000;    0,000;-165,00000
 360,37;   12,000;  436,000;    0,000;-424,00000
 360,39;   45,200;  -26,000;    0,000;71,20000
 360,40;    6,800;   20,000;    0,000;-13,20000
 360,41;   -4,600;  -90,000;    0,000;85,40000
 360,42;    9,600;  -10,000;    0,000;19,60000
 360,43;   -5,000;  184,000;    0,000;-189,00000
 360,45;    4,200;  217,000;    0,000;-212,80000
 360,46;  -14,400;   60,000;    0,000;-74,40000
 360,47;   -1,000;   57,000;    0,000;-58,00000
 360,48;    9,000;  -61,000;    0,000;70,00000
 360,50;    4,400;  -14,000;    0,000;18,40000
 360,51;   -0,200;  260,000;    0,000;-260,20000
 360,52;   -4,600;  618,000;    0,000;-622,60000
 360,53;    3,000; -102,000;    0,000;105,00000
 360,55;   25,400;  874,000;    0,000;-848,60000
 360,56;   -5,000;   97,000;    0,000;-102,00000
 360,57;   -3,600;  312,000;    0,000;-315,60000
 360,58;   -1,000;  -15,000;    0,000;14,00000
 360,59;   36,400;  407,000;    0,000;-370,60000
 360,61;   13,200;  339,000;    0,000;-325,80000
 360,62;   -1,600;  609,000;    0,000;-610,60000
 360,63;    8,400;  102,000;    0,000;-93,60000
 360,64;   25,600;  769,000;    0,000;-743,40000
 360,66;   -6,000;  711,000;    0,000;-717,00000
 360,67;    3,800;  384,000;    0,000;-380,20000
 360,68;    0,600;  384,000;    0,000;-383,40000
 360,69;   16,200;  521,000;    0,000;-504,80000
 360,71;   14,600;   18,000;    0,000;-3,40000
 360,72;   18,600; 1326,000;    0,000;-1307,40000
 360,73;   36,400; -248,000;    0,000;284,40000
 360,74;   52,200;  768,000;    0,000;-715,80000
 360,75;   40,400;  498,000;    0,000;-457,60000
 360,77;  123,400;  775,000;    0,000;-651,60000
 360,78;   77,200;  177,000;    0,000;-99,80000
 360,79;  136,200; 1026,000;    0,000;-889,80000
 360,80;  190,200;  490,000;    0,000;-299,80000
 360,82;  253,000;  959,000;    0,000;-706,00000
 360,83;  376,000; 1065,000;    0,000;-689,00000
 360,84;  523,600; 1451,000;    0,000;-927,40000
 360,85;  766,000;  213,000;    0,000;553,00000
 360,86;  931,200;  753,000;    0,000;178,20000
 360,88; 1025,200;  169,000;    0,000;856,20000
 360,89; 1079,200;  767,000;    0,000;312,20000
 360,90; 1094,400;  601,000;    0,000;493,40000
 360,91; 1233,000; 1233,000;    0,000; 0,00000
 360,93; 1443,200;  630,000;    0,000;813,20000
 360,94; 2002,000; 1143,000;    0,000;859,00000
 360,95; 3053,800;  773,000;    0,000;2280,80000
 360,96; 4793,200; 1121,000;    0,000;3672,20000
 360,97; 6116,800; 1412,000;    0,000;4704,80000
 360,99; 6476,600; 1635,000;    0,000;4841,60000
 361,00; 5097,800;  825,000;    0,000;4272,80000
 361,01; 3215,800;  647,000;    0,000;2568,80000
 361,02; 1955,800;  942,000;    0,000;1013,80000
 361,04; 1178,400;  862,000;    0,000;316,40000
 361,05;  776,200;  519,000;    0,000;257,20000
 361,06;  652,000; 2237,000;    0,000;-1585,00000
 361,07;  596,800;  321,000;    0,000;275,80000
 361,08;  618,800;  945,000;    0,000;-326,20000
 361,10;  679,800; 1065,000;    0,000;-385,20000
 361,11;  654,800;  900,000;    0,000;-245,20000
 361,12;  711,800; 1150,000;    0,000;-438,20000
 361,13;  715,800;  715,000;    0,000; 0,80000
 361,15;  675,600;  946,000;    0,000;-270,40000
 361,16;  803,000; 1689,000;    0,000;-886,00000
 361,17;  998,800;  612,000;    0,000;386,80000
 361,18; 1500,800;  555,000;    0,000;945,80000
 361,19; 2308,800;  909,000;    0,000;1399,80000
 361,21; 3251,400; 1493,000;    0,000;1758,40000
 361,22; 3560,800;  620,000;    0,000;2940,80000
 361,23; 3290,200;  818,000;    0,000;2472,20000
 361,24; 2184,800; 1879,000;    0,000;305,80000
 361,25; 1448,600;  857,000;    0,000;591,60000
 361,27;  748,600; 1200,000;    0,000;-451,40000
 361,28;  464,800;  466,000;    0,000;-1,20000
 361,29;  366,400;  469,000;    0,000;-102,60000
 361,30;  280,000;  620,000;    0,000;-340,00000
 361,32;  217,200;  688,000;    0,000;-470,80000
 361,33;  236,400;  846,000;    0,000;-609,60000
 361,34;  203,600;  497,000;    0,000;-293,40000
 361,35;  295,200; 1001,000;    0,000;-705,80000
 361,36;  382,200; 1048,000;    0,000;-665,80000
 361,38;  475,800; 1190,000;    0,000;-714,20000
 361,39;  377,800;  371,000;    0,000; 6,80000
 361,40;  253,400;  693,000;    0,000;-439,60000
 361,41;  152,800;  964,000;    0,000;-811,20000
 361,42;  142,200; 1010,000;    0,000;-867,80000
 361,44;  114,200;  783,000;    0,000;-668,80000
 361,45;   48,200;  856,000;    0,000;-807,80000
 361,46;   29,000;  560,000;    0,000;-531,00000
 361,47;   61,600;  600,000;    0,000;-538,40000
 361,49;   49,200;  647,000;    0,000;-597,80000
 361,50;   66,400;  548,000;    0,000;-481,60000
 361,51;   46,600;  442,000;    0,000;-395,40000
 361,52;   57,600;  388,000;    0,000;-330,40000
 361,53;   24,000;  876,000;    0,000;-852,00000
 361,55;   58,200;  314,000;    0,000;-255,80000
 361,56;   42,600;  676,000;    0,000;-633,40000
 361,57;   25,200; 1045,000;    0,000;-1019,80000
 361,58;   45,200;  388,000;    0,000;-342,80000
 361,59;   28,200; 1040,000;    0,000;-1011,80000
 361,61;   20,000;  463,000;    0,000;-443,00000
 361,62;   23,400;  576,000;    0,000;-552,60000
 361,63;    9,000;  188,000;    0,000;-179,00000
 361,64;   39,600;   64,000;    0,000;-24,40000
 361,65;   47,800;  482,000;    0,000;-434,20000
 361,67;   33,400;  508,000;    0,000;-474,60000
 361,68;   17,400;  420,000;    0,000;-402,60000
 361,69;   43,400; 1526,000;    0,000;-1482,60000
 361,70;   12,800;  230,000;    0,000;-217,20000
 361,71;   36,800;  609,000;    0,000;-572,20000
 361,73;   24,800;  648,000;    0,000;-623,20000
 361,74;   26,800;  792,000;    0,000;-765,20000
 361,75;   55,400;  441,000;    0,000;-385,60000
 361,76;   20,400;  285,000;    0,000;-264,60000
 361,77;   10,200;  440,000;    0,000;-429,80000
 361,79;   41,800;  804,000;    0,000;-762,20000
 361,80;   -8,400;   86,000;    0,000;-94,40000
 361,81;   58,200;  717,000;    0,000;-658,80000
 361,82;   18,200;  142,000;    0,000;-123,80000
 361,83;   28,200;  556,000;    0,000;-527,80000
 361,85;   30,600;  512,000;    0,000;-481,40000
 361,86;   43,800;  645,000;    0,000;-601,20000
 361,87;   36,000;  218,000;    0,000;-182,00000
 361,88;   55,200;  725,000;    0,000;-669,80000
 361,89;   -2,400;  298,000;    0,000;-300,40000
 361,91;   45,000;  548,000;    0,000;-503,00000
 361,92;   31,200;  644,000;    0,000;-612,80000
 361,93;   14,200;  465,000;    0,000;-450,80000
 361,94;   13,800;  -10,000;    0,000;23,80000
 361,95;   33,800;  285,000;    0,000;-251,20000
 361,97;   -2,200; -172,000;    0,000;169,80000
 361,98;   23,600;  772,000;    0,000;-748,40000
 361,99;   48,200;  548,000;    0,000;-499,80000
 362,00;   21,000;  519,000;    0,000;-498,00000
 362,01;   24,200;   48,000;    0,000;-23,80000
 362,03;   35,400;  604,000;    0,000;-568,60000
 362,04;  -17,800;  314,000;    0,000;-331,80000
 362,05;   39,800;  958,000;    0,000;-918,20000
 362,06;   25,600; -129,000;    0,000;154,60000
 362,07;   41,000;  444,000;    0,000;-403,00000
 362,09;    8,000; -128,000;    0,000;136,00000
 362,10;   -2,800;  283,000;    0,000;-285,80000
 362,11;  -31,600;  429,000;    0,000;-460,60000
 362,12;   21,400;  242,000;    0,000;-220,60000
 362,13;    0,200;  228,000;    0,000;-227,80000
 362,15;   26,800;  412,000;    0,000;-385,20000
 362,16;    5,800;  107,000;    0,000;-101,20000
 362,17;    9,200;  383,000;    0,000;-373,80000
 362,18;   24,400; -195,000;    0,000;219,40000
 362,19;    4,800;  798,000;    0,000;-793,20000
 362,21;   14,800; -444,000;    0,000;458,80000
 362,22;   31,600;  344,000;    0,000;-312,40000
 362,23;    0,400;  -47,000;    0,000;47,40000
 362,24;   11,600;  759,000;    0,000;-747,40000
 362,25;    3,600;  -15,000;    0,000;18,60000
 362,27;   35,000; 1094,000;    0,000;-1059,00000
 362,28;   25,000;  662,000;    0,000;-637,00000
 362,29;   32,200;  533,000;    0,000;-500,80000
 362,30;    8,400;  737,000;    0,000;-728,60000
 362,31;   36,600;  283,000;    0,000;-246,40000
 362,32;  -18,200;   -7,000;    0,000;-11,20000
 362,34;    3,400;  275,000;    0,000;-271,60000
 362,35;   -1,000;  140,000;    0,000;-141,00000
 362,36;   15,400;  543,000;    0,000;-527,60000
 362,37;    4,600;  107,000;    0,000;-102,40000
 362,38;    1,600;  -65,000;    0,000;66,60000
 362,40;   -3,000;  499,000;    0,000;-502,00000
 362,41;   33,400;  182,000;    0,000;-148,60000
 362,42;  -36,400;  243,000;    0,000;-279,40000
 362,43;   27,600;  326,000;    0,000;-298,40000
 362,44;   39,600;   99,000;    0,000;-59,40000
 362,46;    2,000; -130,000;    0,000;132,00000
 362,47;    0,800;  319,000;    0,000;-318,20000
 362,48;   37,400;  254,000;    0,000;-216,60000
 362,49;  -45,600;   25,000;    0,000;-70,60000
 362,50;   40,200;  438,000;    0,000;-397,80000
 362,51;   -2,000;   59,000;    0,000;-61,00000
 362,53;  -12,800;  196,000;    0,000;-208,80000
 362,54;   21,800;  321,000;    0,000;-299,20000
 362,55;   32,400;  343,000;    0,000;-310,60000
 362,56;   19,800;  465,000;    0,000;-445,20000
 362,57;   46,200;  460,000;    0,000;-413,80000
 362,59;  -16,000;  640,000;    0,000;-656,00000
 362,60;   17,200;  293,000;    0,000;-275,80000
 362,61;   25,600;  615,000;    0,000;-589,40000
 362,62;   -9,400;  457,000;    0,000;-466,40000
 362,63;    2,800;  -68,000;    0,000;70,80000
 362,65;   -8,400; -110,000;    0,000;101,60000
 362,66;   -4,000;  208,000;    0,000;-212,00000
 362,67;   34,200; -198,000;    0,000;232,20000
 362,68;   -1,200;  232,000;    0,000;-233,20000
 362,69;   43,200;  426,000;    0,000;-382,80000
 362,70;   -5,800; -349,000;    0,000;343,20000
 362,72;   28,600; -134,000;    0,000;162,60000
 362,73;   13,200;   31,000;    0,000;-17,80000
 362,74;  -30,800; -102,000;    0,000;71,20000
 362,75;  -15,200; -267,000;    0,000;251,80000
 362,76;   24,400; -102,000;    0,000;126,40000
 362,77;   22,600; -181,000;    0,000;203,60000
 362,79;   20,600;   -2,000;    0,000;22,60000
 362,80;  -15,200;  641,000;    0,000;-656,20000
 362,81;   29,800; -353,000;    0,000;382,80000
 362,82;  -13,000;  479,000;    0,000;-492,00000
 362,83;   27,800;  206,000;    0,000;-178,20000
 362,85;  -12,400; -381,000;    0,000;368,60000
 362,86;   39,600;   71,000;    0,000;-31,40000
 362,87;    2,200; -131,000;    0,000;133,20000
 362,88;   15,600;  424,000;    0,000;-408,40000
 362,89;   -2,800;  -39,000;    0,000;36,20000
 362,90;   13,000;  198,000;    0,000;-185,00000
 362,92;   -6,200;  -15,000;    0,000; 8,80000
 362,93;   10,800; -217,000;    0,000;227,80000
 362,94;  -18,400;  -24,000;    0,000; 5,60000
 362,95;  -18,200; -353,000;    0,000;334,80000
 362,96;   -0,400;  399,000;    0,000;-399,40000
 362,97;   -7,200;   87,000;    0,000;-94,20000
 362,99;  -39,200; -557,000;    0,000;517,80000
 363,00;    1,600; -294,000;    0,000;295,60000
 363,01;    8,200; -283,000;    0,000;291,20000
 363,02;   -4,200; -194,000;    0,000;189,80000
 363,03;   29,800; -413,000;    0,000;442,80000
 363,05;   29,600;   28,000;    0,000; 1,60000
 363,06;  -28,800;  153,000;    0,000;-181,80000
 363,07;   25,400;  359,000;    0,000;-333,60000
 363,08;    4,800; -445,000;    0,000;449,80000
 363,09;   11,600;  -84,000;    0,000;95,60000
 363,10;    1,800; -328,000;    0,000;329,80000
 363,12;   39,200; -329,000;    0,000;368,20000
 363,13;   17,600; -331,000;    0,000;348,60000
 363,14;   10,600; -456,000;    0,000;466,60000
 363,15;   22,800; -366,000;    0,000;388,80000
 363,16;  -14,200; -352,000;    0,000;337,80000
 363,17;   -3,000; -605,000;    0,000;602,00000
 363,19;   -6,600; -379,000;    0,000;372,40000
 363,20;    7,000; -192,000;    0,000;199,00000
 363,21;   31,400;  149,000;    0,000;-117,60000
 363,22;  -31,200; -132,000;    0,000;100,80000
 363,23;   50,600; -266,000;    0,000;316,60000
 363,24;    7,400; -184,000;    0,000;191,40000
 363,26;   43,400;  234,000;    0,000;-190,60000
 363,27;    5,000;  258,000;    0,000;-253,00000
 363,28;    4,400;  -50,000;    0,000;54,40000
 363,29;   13,800; -285,000;    0,000;298,80000
 363,30;   28,400;  -62,000;    0,000;90,40000
 363,31;   -1,400; -271,000;    0,000;269,60000
 363,33;   15,000;  211,000;    0,000;-196,00000
 363,34;  -10,400; -219,000;    0,000;208,60000
 363,35;   38,200; -358,000;    0,000;396,20000
 363,36;   -6,800;  103,000;    0,000;-109,80000
 363,37;   26,200; -253,000;    0,000;279,20000
 363,38;  -32,800;  -81,000;    0,000;48,20000
 363,40;   -7,800; -107,000;    0,000;99,20000
 363,41;   10,000;  -27,000;    0,000;37,00000
 363,42;   24,400;  -26,000;    0,000;50,40000
 363,43;  -19,600; -595,000;    0,000;575,40000
 363,44;    8,800; -606,000;    0,000;614,80000
 363,45;   41,600; -526,000;    0,000;567,60000
 363,47;    3,800;  373,000;    0,000;-369,20000
 363,48;   -9,000;  -83,000;    0,000;74,00000
 363,49;   19,000;  -81,000;    0,000;100,00000
 363,50;   -7,200; -235,000;    0,000;227,80000
 363,51;    6,800; -449,000;    0,000;455,80000
 363,52;   -1,200; -534,000;    0,000;532,80000
 363,53;   31,600; -101,000;    0,000;132,60000
 363,55;   -7,600; -545,000;    0,000;537,40000
 363,56;   20,400; -447,000;    0,000;467,40000
 363,57;   -0,600; -587,000;    0,000;586,40000
 363,58;   15,800; -261,000;    0,000;276,80000
 363,59;   31,200; -467,000;    0,000;498,20000
 363,60;  -15,400; -172,000;    0,000;156,60000
 363,62;    1,800; -296,000;    0,000;297,80000
 363,63;   34,000;  -55,000;    0,000;89,00000
 363,64;  -23,000; -285,000;    0,000;262,00000
 363,65;   -1,600; -383,000;    0,000;381,40000
 363,66;  -13,800; -346,000;    0,000;332,20000
 363,67;   38,600;  -30,000;    0,000;68,60000
 363,69;   26,200; -200,000;    0,000;226,20000
 363,70;   57,400; -256,000;    0,000;313,40000
 363,71;  -14,000; -406,000;    0,000;392,00000
 363,72;    9,600; -385,000;    0,000;394,60000
 363,73;   24,200; -279,000;    0,000;303,20000
 363,74;   36,800; -368,000;    0,000;404,80000
 363,75;  -15,800; -284,000;    0,000;268,20000
 363,77;   -0,400; -339,000;    0,000;338,60000
 363,78;    4,200; -371,000;    0,000;375,20000
 363,79;    7,800;  225,000;    0,000;-217,20000
 363,80;   13,200; -332,000;    0,000;345,20000
 363,81;   -8,200; -350,000;    0,000;341,80000
 363,82;   17,400; -518,000;    0,000;535,40000
 363,84;   22,400; -381,000;    0,000;403,40000
 363,85;  -12,800; -112,000;    0,000;99,20000
 363,86;   12,200;   14,000;    0,000;-1,80000
 363,87;   -2,000; -473,000;    0,000;471,00000
 363,88;   19,400; -229,000;    0,000;248,40000
 363,89;    2,000; -455,000;    0,000;457,00000
 363,90;   11,200;   96,000;    0,000;-84,80000
 363,92;   12,200; -469,000;    0,000;481,20000
 363,93;   11,000; -194,000;    0,000;205,00000
 363,94;   19,400; -259,000;    0,000;278,40000
 363,95;   23,000; -121,000;    0,000;144,00000
 363,96;   19,400; -598,000;    0,000;617,40000
 363,97;   22,400; -174,000;    0,000;196,40000
 363,99;    0,400; -169,000;    0,000;169,40000
 364,00;   26,200; -301,000;    0,000;327,20000
 364,01;  -10,600; -329,000;    0,000;318,40000
 364,02;    6,800; -521,000;    0,000;527,80000
 364,03;   -0,200;  255,000;    0,000;-255,20000
 364,04;    7,400; -156,000;    0,000;163,40000
 364,05;   19,200; -319,000;    0,000;338,20000
 364,07;   20,600; -264,000;    0,000;284,60000
 364,08;    3,200; -369,000;    0,000;372,20000
 364,09;   21,000;  618,000;    0,000;-597,00000
 364,10;   -9,000; -236,000;    0,000;227,00000
 364,11;  -11,400; -315,000;    0,000;303,60000
 364,12;    9,200; -512,000;    0,000;521,20000
 364,13;   -2,800; -290,000;    0,000;287,20000
 364,15;    2,600; -407,000;    0,000;409,60000
 364,16;   25,800;  -92,000;    0,000;117,80000
 364,17;    8,800; -576,000;    0,000;584,80000
 364,18;   -5,200; -564,000;    0,000;558,80000
 364,19;   20,200; -365,000;    0,000;385,20000
 364,20;    3,400; -229,000;    0,000;232,40000
 364,21;   -5,200; -486,000;    0,000;480,80000
 364,23;    6,000;  -60,000;    0,000;66,00000
 364,24;   -4,600; -480,000;    0,000;475,40000
 364,25;   31,000; -448,000;    0,000;479,00000
 364,26;  -16,600; -277,000;    0,000;260,40000
 364,27;   19,000; -133,000;    0,000;152,00000
 364,28;  -24,000; -684,000;    0,000;660,00000
 364,29;   34,200; -368,000;    0,000;402,20000
 364,31;   24,000; -278,000;    0,000;302,00000
 364,32;  -21,400; -656,000;    0,000;634,60000
 364,33;    4,200; -439,000;    0,000;443,20000
 364,34;   21,200; -296,000;    0,000;317,20000
 364,35;    5,600; -138,000;    0,000;143,60000
 364,36;  -10,400; -151,000;    0,000;140,60000
 364,37;   15,000; -560,000;    0,000;575,00000
 364,39;    5,600; -153,000;    0,000;158,60000
 364,40;   -9,200; -348,000;    0,000;338,80000
 364,41;   12,400;   65,000;    0,000;-52,60000
 364,42;  -20,400; -528,000;    0,000;507,60000
 364,43;   17,200; -126,000;    0,000;143,20000
 364,44;  -21,600; -367,000;    0,000;345,40000
 364,45;   23,200; -198,000;    0,000;221,20000
 364,46;  -28,400; -480,000;    0,000;451,60000
 364,48;   37,600; -272,000;    0,000;309,60000
 364,49;   -6,800; -337,000;    0,000;330,20000
 364,50;   14,800;  -73,000;    0,000;87,80000
 364,51;   13,400; -375,000;    0,000;388,40000
 364,52;   18,200; -262,000;    0,000;280,20000
 364,53;  -38,600; -446,000;    0,000;407,40000
 364,54;   17,000; -328,000;    0,000;345,00000
 364,56;  -26,600; -571,000;    0,000;544,40000
 364,57;   31,600;  -67,000;    0,000;98,60000
 364,58;  -33,200; -573,000;    0,000;539,80000
 364,59;   10,200; -361,000;    0,000;371,20000
 364,60;  -10,200; -352,000;    0,000;341,80000
 364,61;   -2,400; -409,000;    0,000;406,60000
 364,62;  -15,000; -342,000;    0,000;327,00000
 364,64;   -2,600; -292,000;    0,000;289,40000
 364,65;   -9,600; -287,000;    0,000;277,40000
 364,66;  -16,000; -248,000;    0,000;232,00000
 364,67;    0,800;  -53,000;    0,000;53,80000
 364,68;   -9,400; -293,000;    0,000;283,60000
 364,69;   -2,800; -472,000;    0,000;469,20000
 364,70;   22,200; 1239,000;    0,000;-1216,80000
 364,71;   10,400; -512,000;    0,000;522,40000
 364,73;   -1,400;   94,000;    0,000;-95,40000
 364,74;    6,800; -337,000;    0,000;343,80000
 364,75;   33,400; -418,000;    0,000;451,40000
 364,76;  -18,200; -185,000;    0,000;166,80000
 364,77;   15,200; -310,000;    0,000;325,20000
 364,78;  -28,200; -451,000;    0,000;422,80000
 364,79;   -6,200; -182,000;    0,000;175,80000
 364,80;   -3,200; -367,000;    0,000;363,80000
 364,82;    4,400; -270,000;    0,000;274,40000
 364,83;  -17,000; -535,000;    0,000;518,00000
 364,84;   -0,200;  117,000;    0,000;-117,20000
 364,85;  -36,200; -599,000;    0,000;562,80000
 364,86;   23,400;  147,000;    0,000;-123,60000
 364,87;   12,400;   77,000;    0,000;-64,60000
 364,88;   35,000;  353,000;    0,000;-318,00000
 364,89;   14,000;  266,000;    0,000;-252,00000
 364,91;   59,200; -349,000;    0,000;408,20000
 364,92;   26,200; -439,000;    0,000;465,20000
 364,93;   12,800; -255,000;    0,000;267,80000
 364,94;   -3,600; -258,000;    0,000;254,40000
 364,95;   17,200; -113,000;    0,000;130,20000
 364,96;   -0,600; -329,000;    0,000;328,40000
 364,97;   22,800; -557,000;    0,000;579,80000
 364,98;   21,400; -128,000;    0,000;149,40000
 365,00;   28,400;  -29,000;    0,000;57,40000
 365,01;  -14,400; -461,000;    0,000;446,60000
 365,02;  -12,600; -498,000;    0,000;485,40000
 365,03;  -20,000; -303,000;    0,000;283,00000
 365,04;   21,800; -158,000;    0,000;179,80000
 365,05;   -8,400; -487,000;    0,000;478,60000
 365,06;   -3,600; -456,000;    0,000;452,40000
 365,07;   -1,600; -375,000;    0,000;373,40000
 365,09;  -11,200; -265,000;    0,000;253,80000
 365,10;  -20,600; -507,000;    0,000;486,40000
 365,11;   13,800; -547,000;    0,000;560,80000
 365,12;    9,800; -408,000;    0,000;417,80000
 365,13;   39,400; -261,000;    0,000;300,40000
 365,14;   -1,800; -111,000;    0,000;109,20000
 365,15;   21,800;  -75,000;    0,000;96,80000
 365,16;   -7,600; -192,000;    0,000;184,40000
 365,18;   30,600; -118,000;    0,000;148,60000
 365,19;   10,800;  -35,000;    0,000;45,80000
 365,20;   -2,000; -443,000;    0,000;441,00000
 365,21;   35,000;  122,000;    0,000;-87,00000
 365,22;   21,800; -176,000;    0,000;197,80000
 365,23;   16,600; -433,000;    0,000;449,60000
 365,24;  -24,400; -561,000;    0,000;536,60000
 365,25;   -7,200; -340,000;    0,000;332,80000
 365,26;   11,000; -317,000;    0,000;328,00000
 365,28;   29,200; -558,000;    0,000;587,20000
 365,29;   32,800; -442,000;    0,000;474,80000
 365,30;  -25,800; -147,000;    0,000;121,20000
 365,31;   15,000; -182,000;    0,000;197,00000
 365,32;   -2,200; -435,000;    0,000;432,80000
 365,33;   -1,800; -523,000;    0,000;521,20000
 365,34;  -10,200; -377,000;    0,000;366,80000
 365,35;   12,800; -417,000;    0,000;429,80000
 365,36;  -17,800; -637,000;    0,000;619,20000
 365,38;   32,200; -223,000;    0,000;255,20000
 365,39;    0,000; -180,000;    0,000;180,00000
 365,40;   23,800; -412,000;    0,000;435,80000
 365,41;  -12,200; -497,000;    0,000;484,80000
 365,42;   -9,000; -416,000;    0,000;407,00000
 365,43;   11,000; -152,000;    0,000;163,00000
 365,44;  -20,200;  -64,000;    0,000;43,80000
 365,45;  -54,000; -814,000;    0,000;760,00000
 365,46;   -0,400; -366,000;    0,000;365,60000
 365,48;   11,000; -410,000;    0,000;421,00000
 365,49;   12,800;  -44,000;    0,000;56,80000
 365,50;   -9,000; -462,000;    0,000;453,00000
 365,51;   -9,400;  -65,000;    0,000;55,60000
 365,52;   -3,600; -307,000;    0,000;303,40000
 365,53;    9,400;   -9,000;    0,000;18,40000
 365,54;   30,800; -550,000;    0,000;580,80000
 365,55;   -8,400; -407,000;    0,000;398,60000
 365,56;  -18,600; -327,000;    0,000;308,40000
 365,58;   36,600;  -65,000;    0,000;101,60000
 365,59;  -20,000; -613,000;    0,000;593,00000
 365,60;    9,600; -107,000;    0,000;116,60000
 365,61;  -16,000; -278,000;    0,000;262,00000
 365,62;   13,400; -431,000;    0,000;444,40000
 365,63;  -18,000; -565,000;    0,000;547,00000
 365,64;   -7,000; -268,000;    0,000;261,00000
 365,65;  -18,000;  -38,000;    0,000;20,00000
 365,66;   17,200; -183,000;    0,000;200,20000
 365,68;    2,800; -258,000;    0,000;260,80000
 365,69;   28,200; -528,000;    0,000;556,20000
 365,70;   -1,800; -428,000;    0,000;426,20000
 365,71;  -10,400; -113,000;    0,000;102,60000
 365,72;   19,200; -236,000;    0,000;255,20000
 365,73;   -5,400; -221,000;    0,000;215,60000
 365,74;   -6,200; -486,000;    0,000;479,80000
 365,75;    9,000; -268,000;    0,000;277,00000
 365,76;   10,400;  -13,000;    0,000;23,40000
 365,77;  -11,000; -568,000;    0,000;557,00000
 365,79;  -33,400; -295,000;    0,000;261,60000
 365,80;   53,000; -233,000;    0,000;286,00000
 365,81;  -15,600; -114,000;    0,000;98,40000
 365,82;    3,200; -268,000;    0,000;271,20000
 365,83;  -28,400;   -2,000;    0,000;-26,40000
 365,84;   -9,600; -213,000;    0,000;203,40000
 365,85;   17,000; -295,000;    0,000;312,00000
 365,86;   10,800; -223,000;    0,000;233,80000
 365,87;   29,200; -438,000;    0,000;467,20000
 365,88;  -10,800; -269,000;    0,000;258,20000
 365,90;    2,600; -105,000;    0,000;107,60000
 365,91;  -23,000;  181,000;    0,000;-204,00000
 365,92;   14,200; -392,000;    0,000;406,20000
 365,93;   12,800; -393,000;    0,000;405,80000
 365,94;   25,400; -219,000;    0,000;244,40000
 365,95;   -5,000; -356,000;    0,000;351,00000
 365,96;   -7,400; -202,000;    0,000;194,60000
 365,97;   13,000;   -2,000;    0,000;15,00000
 365,98;    5,400; -103,000;    0,000;108,40000
 365,99;   32,000; -599,000;    0,000;631,00000
 366,01;   -1,800;   36,000;    0,000;-37,80000
 366,02;   19,400; -253,000;    0,000;272,40000
 366,03;   -6,400; -513,000;    0,000;506,60000
 366,04;  -15,200; -277,000;    0,000;261,80000
 366,05;  -23,000;  -84,000;    0,000;61,00000
 366,06;   -7,600; -142,000;    0,000;134,40000
 366,07;   -4,200; -803,000;    0,000;798,80000
 366,08;    8,200; -336,000;    0,000;344,20000
 366,09;   -6,200; -289,000;    0,000;282,80000
 366,10;   -6,200; -570,000;    0,000;563,80000
 366,11;  -45,600; -355,000;    0,000;309,40000
 366,13;  -24,400; -427,000;    0,000;402,60000
 366,14;    7,000; -554,000;    0,000;561,00000
 366,15;   30,400; -438,000;    0,000;468,40000
 366,16;  -15,000; -269,000;    0,000;254,00000
 366,17;   28,400; -177,000;    0,000;205,40000
 366,18;   11,200; -368,000;    0,000;379,20000
 366,19;   -5,000;  285,000;    0,000;-290,00000
 366,20;   -5,800; -371,000;    0,000;365,20000
 366,21;    2,200; -532,000;    0,000;534,20000
 366,22;   13,600; -545,000;    0,000;558,60000
 366,24;   -3,600; -318,000;    0,000;314,40000
 366,25;   15,600; -552,000;    0,000;567,60000
 366,26;   18,200; -491,000;    0,000;509,20000
 366,27;   -7,600; -530,000;    0,000;522,40000
 366,28;   32,400; -158,000;    0,000;190,40000
 366,29;  -21,200; -553,000;    0,000;531,80000
 366,30;   15,400; -106,000;    0,000;121,40000
 366,31;   15,400; -410,000;    0,000;425,40000
 366,32;   14,200;  153,000;    0,000;-138,80000
 366,33;  -55,400; -685,000;    0,000;629,60000
 366,34;   20,200; -200,000;    0,000;220,20000
 366,35;  -28,600; -105,000;    0,000;76,40000
 366,37;   22,800;  373,000;    0,000;-350,20000
 366,38;  -17,200; -578,000;    0,000;560,80000
 366,39;   33,800; -152,000;    0,000;185,80000
 366,40;   18,600;  102,000;    0,000;-83,40000
 366,41;   26,000; -104,000;    0,000;130,00000
 366,42;   -8,000; -524,000;    0,000;516,00000
 366,43;  -18,600; -211,000;    0,000;192,40000
 366,44;   12,200; -202,000;    0,000;214,20000
 366,45;   26,000; -267,000;    0,000;293,00000
 366,46;   20,600; -430,000;    0,000;450,60000
 366,47;   32,000; -112,000;    0,000;144,00000
 366,49;   -5,000;  478,000;    0,000;-483,00000
 366,50;   20,800; -363,000;    0,000;383,80000
 366,51;    2,800; -194,000;    0,000;196,80000
 366,52;   -3,800; -317,000;    0,000;313,20000
 366,53;  -30,200;   14,000;    0,000;-44,20000
 366,54;   26,800; -239,000;    0,000;265,80000
 366,55;  -13,000;  158,000;    0,000;-171,00000
 366,56;    6,000; -107,000;    0,000;113,00000
 366,57;   -9,600; -393,000;    0,000;383,40000
 366,58;   17,800; -385,000;    0,000;402,80000
 366,59;   -6,800; -274,000;    0,000;267,20000
 366,60;  -18,800; -327,000;    0,000;308,20000
 366,61;    3,400; -464,000;    0,000;467,40000
 366,63;  -13,400; -192,000;    0,000;178,60000
 366,64;   11,000; -673,000;    0,000;684,00000
 366,65;  -15,800; -437,000;    0,000;421,20000
 366,66;    2,600; -254,000;    0,000;256,60000
 366,67;    3,000;  126,000;    0,000;-123,00000
 366,68;    6,200; -264,000;    0,000;270,20000
 366,69;  -12,200; -284,000;    0,000;271,80000
 366,70;   12,800;  -49,000;    0,000;61,80000
 366,71;  -12,800; -413,000;    0,000;400,20000
 366,72;   14,600; -621,000;    0,000;635,60000
 366,73;   10,800; -246,000;    0,000;256,80000
 366,74;   25,200; -312,000;    0,000;337,20000
 366,75;   -1,000; -180,000;    0,000;179,00000
 366,77;   -1,400; -257,000;    0,000;255,60000
 366,78;    6,600; -442,000;    0,000;448,60000
 366,79;  -19,600;   65,000;    0,000;-84,60000
 366,80;   28,400; -382,000;    0,000;410,40000
 366,81;  -29,600; -266,000;    0,000;236,40000
 366,82;  -14,600; -236,000;    0,000;221,40000
 366,83;   20,400; -333,000;    0,000;353,40000
 366,84;  -44,200;   53,000;    0,000;-97,20000
 366,85;  -12,800; -573,000;    0,000;560,20000
 366,86;  -19,600; -397,000;    0,000;377,40000
 366,87;    0,600;  190,000;    0,000;-189,40000
 366,88;   -1,400; -334,000;    0,000;332,60000
 366,89;   -1,600; -132,000;    0,000;130,40000
 366,91;    3,000; -166,000;    0,000;169,00000
 366,92;   -2,800; -309,000;    0,000;306,20000
 366,93;   -1,000; -433,000;    0,000;432,00000
 366,94;  -15,800; -357,000;    0,000;341,20000
 366,95;   13,600; -306,000;    0,000;319,60000
 366,96;   -0,800; -427,000;    0,000;426,20000
 366,97;   25,800; -234,000;    0,000;259,80000
 366,98;    4,000; -601,000;    0,000;605,00000
 366,99;   26,600;   72,000;    0,000;-45,40000
 367,00;   37,800; -137,000;    0,000;174,80000
 367,01;   13,200; -201,000;    0,000;214,20000
 367,02;  -14,600;  -77,000;    0,000;62,40000
 367,03;   -7,600; -362,000;    0,000;354,40000
 367,04;   -6,200; -294,000;    0,000;287,80000
 367,06;  -20,800; -310,000;    0,000;289,20000
 367,07;   -2,000;  -25,000;    0,000;23,00000
 367,08;   -8,400; -138,000;    0,000;129,60000
 367,09;   -7,800; -123,000;    0,000;115,20000
 367,10;   20,600; -377,000;    0,000;397,60000
 367,11;  -34,400; -365,000;    0,000;330,60000
 367,12;   14,800; -510,000;    0,000;524,80000
 367,13;  -18,000;   59,000;    0,000;-77,00000
 367,14;    5,800; -139,000;    0,000;144,80000
 367,15;  -18,200; -501,000;    0,000;482,80000
 367,16;   14,800; -358,000;    0,000;372,80000
 367,17;   23,200; -237,000;    0,000;260,20000
 367,18;   23,400; -246,000;    0,000;269,40000
 367,19;   17,800; -334,000;    0,000;351,80000
 367,20;   40,600; -206,000;    0,000;246,60000
 367,21;  -12,000; -357,000;    0,000;345,00000
 367,23;   16,800; -494,000;    0,000;510,80000
 367,24;  -36,400; -341,000;    0,000;304,60000
 367,25;   13,800; -169,000;    0,000;182,80000
 367,26;   31,600; -479,000;    0,000;510,60000
 367,27;   30,800; -382,000;    0,000;412,80000
 367,28;  -23,400; -567,000;    0,000;543,60000
 367,29;   35,200; -450,000;    0,000;485,20000
 367,30;    3,200; -421,000;    0,000;424,20000
 367,31;    5,600; -367,000;    0,000;372,60000
 367,32;  -28,200; -559,000;    0,000;530,80000
 367,33;   49,600; -473,000;    0,000;522,60000
 367,34;  -14,800; -369,000;    0,000;354,20000
 367,35;   38,400; -152,000;    0,000;190,40000
 367,36;   18,200; -312,000;    0,000;330,20000
 367,37;  -28,000; -343,000;    0,000;315,00000
 367,38;   11,000; -605,000;    0,000;616,00000
 367,40;    8,600; -422,000;    0,000;430,60000
 367,41;   11,000; -186,000;    0,000;197,00000
 367,42;    6,600;   26,000;    0,000;-19,40000
 367,43;   13,400;  -54,000;    0,000;67,40000
 367,44;    7,600; -266,000;    0,000;273,60000
 367,45;   26,600; -321,000;    0,000;347,60000
 367,46;   23,200; -371,000;    0,000;394,20000
 367,47;   28,200; -397,000;    0,000;425,20000
 367,48;    9,600; -149,000;    0,000;158,60000
 367,49;   19,600; -315,000;    0,000;334,60000
 367,50;   11,800; -618,000;    0,000;629,80000
 367,51;   23,600;  -34,000;    0,000;57,60000
 367,52;  -18,600; -280,000;    0,000;261,40000
 367,53;   -6,400; -149,000;    0,000;142,60000
 367,54;   46,400; -365,000;    0,000;411,40000
 367,55;    4,600; -151,000;    0,000;155,60000
 367,56;   33,800; -349,000;    0,000;382,80000
 367,57;   -5,200; -494,000;    0,000;488,80000
 367,59;   -4,800; -382,000;    0,000;377,20000
 367,60;   21,000;   35,000;    0,000;-14,00000
 367,61;   49,800;    1,000;    0,000;48,80000
 367,62;   11,800; -311,000;    0,000;322,80000
 367,63;    8,600; -357,000;    0,000;365,60000
 367,64;    3,800;   35,000;    0,000;-31,20000
 367,65;   -9,800;   22,000;    0,000;-31,80000
 367,66;  -31,600; -414,000;    0,000;382,40000
 367,67;    5,600; -355,000;    0,000;360,60000
 367,68;    1,600; -553,000;    0,000;554,60000
 367,69;   -5,600; -454,000;    0,000;448,40000
 367,70;   -0,200; -477,000;    0,000;476,80000
 367,71;  -14,400; -249,000;    0,000;234,60000
 367,72;  -11,600; -180,000;    0,000;168,40000
 367,73;   -5,800; -150,000;    0,000;144,20000
 367,74;   32,000; -243,000;    0,000;275,00000
 367,75;  -18,800; -510,000;    0,000;491,20000
 367,76;   -3,000; -525,000;    0,000;522,00000
 367,77;   -8,600; -152,000;    0,000;143,40000
 367,78;    9,200; -233,000;    0,000;242,20000
 367,80;   45,600;  443,000;    0,000;-397,40000
 367,81;   12,000; -547,000;    0,000;559,00000
 367,82;    6,400; -228,000;    0,000;234,40000
 367,83;    4,400; -360,000;    0,000;364,40000
 367,84;   12,800;   78,000;    0,000;-65,20000
 367,85;   17,800; -127,000;    0,000;144,80000
 367,86;   26,600; -153,000;    0,000;179,60000
 367,87;    6,800; -234,000;    0,000;240,80000
 367,88;   -7,800; -636,000;    0,000;628,20000
 367,89;    6,600; -407,000;    0,000;413,60000
 367,90;   -4,000; -175,000;    0,000;171,00000
 367,91;   20,200; -313,000;    0,000;333,20000
 367,92;   -9,800; -179,000;    0,000;169,20000
 367,93;   -0,200; -426,000;    0,000;425,80000
 367,94;   12,200; -221,000;    0,000;233,20000
 367,95;   14,400; -324,000;    0,000;338,40000
 367,96;   23,000; -410,000;    0,000;433,00000
 367,97;  -10,000; -502,000;    0,000;492,00000
 367,98;   -3,800;   -9,000;    0,000; 5,20000
 367,99;    7,200; -197,000;    0,000;204,20000
 368,00;  -24,400; -594,000;    0,000;569,60000
 368,01;   10,800; -349,000;    0,000;359,80000
 368,03;  -27,200;  139,000;    0,000;-166,20000
 368,04;   -9,000; -649,000;    0,000;640,00000
 368,05;    0,600; -144,000;    0,000;144,60000
 368,06;   18,800;  139,000;    0,000;-120,20000
 368,07;   -3,000; -504,000;    0,000;501,00000
 368,08;  -28,200; -309,000;    0,000;280,80000
 368,09;   37,600;   30,000;    0,000; 7,60000
 368,10;   -2,400;  -14,000;    0,000;11,60000
 368,11;  -28,600;   34,000;    0,000;-62,60000
 368,12;    1,200; -510,000;    0,000;511,20000
 368,13;   20,200; -214,000;    0,000;234,20000
 368,14;   20,400;   93,000;    0,000;-72,60000
 368,15;   47,800; -169,000;    0,000;216,80000
 368,16;   19,800; -397,000;    0,000;416,80000
 368,17;   -3,000; -317,000;    0,000;314,00000
 368,18;   -2,600; -275,000;    0,000;272,40000
 368,19;    6,600; -339,000;    0,000;345,60000
 368,20;  -45,800; -723,000;    0,000;677,20000
 368,21;    2,800; -330,000;    0,000;332,80000
 368,22;  -31,800; -425,000;    0,000;393,20000
 368,23;   15,800; -231,000;    0,000;246,80000
 368,24;   -7,000; -520,000;    0,000;513,00000
 368,25;   -8,600; -365,000;    0,000;356,40000
 368,26;  -11,800; -429,000;    0,000;417,20000
 368,27;   14,000;  236,000;    0,000;-222,00000
 368,28;  -20,400; -704,000;    0,000;683,60000
 368,29;   -8,200; -132,000;    0,000;123,80000
 368,30;  -19,600;  -11,000;    0,000;-8,60000
 368,32;  -12,200; -534,000;    0,000;521,80000
 368,33;  -33,800; -724,000;    0,000;690,20000
 368,34;   21,400; -466,000;    0,000;487,40000
 368,35;    4,800; -126,000;    0,000;130,80000
 368,36;   -3,200; -295,000;    0,000;291,80000
 368,37;   -3,800; -575,000;    0,000;571,20000
 368,38;   16,800; -168,000;    0,000;184,80000
 368,39;   42,400; -225,000;    0,000;267,40000
 368,40;   12,400; -223,000;    0,000;235,40000
 368,41;  -47,200;  -22,000;    0,000;-25,20000
 368,42;   62,200; -323,000;    0,000;385,20000
 368,43;  -22,800;  270,000;    0,000;-292,80000
 368,44;   22,000; -100,000;    0,000;122,00000
 368,45;   -3,200; -686,000;    0,000;682,80000
 368,46;   44,200; -393,000;    0,000;437,20000
 368,47;   -5,400;  -84,000;    0,000;78,60000
 368,48;  -23,000;  -85,000;    0,000;62,00000
 368,49;  -34,400; -858,000;    0,000;823,60000
 368,50;   22,800; -623,000;    0,000;645,80000
 368,51;   -4,600; -209,000;    0,000;204,40000
 368,52;   11,400; -252,000;    0,000;263,40000
 368,53;    6,400; -417,000;    0,000;423,40000
 368,54;    9,200; -369,000;    0,000;378,20000
 368,55;  -29,200; -346,000;    0,000;316,80000
 368,56;   68,400;  104,000;    0,000;-35,60000
 368,57;   -1,400; -578,000;    0,000;576,60000
 368,58;   12,400; -372,000;    0,000;384,40000
 368,59;    1,600; -435,000;    0,000;436,60000
 368,60;   51,000; -277,000;    0,000;328,00000
 368,61;  -48,000; -578,000;    0,000;530,00000
 368,62;   35,200; -145,000;    0,000;180,20000
 368,63;  -19,600; -132,000;    0,000;112,40000
 368,64;   14,800;  -27,000;    0,000;41,80000
 368,65;    5,600; -477,000;    0,000;482,60000
 368,66;  -31,000; -413,000;    0,000;382,00000
 368,67;  -10,600;  103,000;    0,000;-113,60000
 368,68;   29,200; -284,000;    0,000;313,20000
 368,70;   29,400; -262,000;    0,000;291,40000
 368,71;    1,200; -284,000;    0,000;285,20000
 368,72;  -10,600; -287,000;    0,000;276,40000
 368,73;    6,800; -108,000;    0,000;114,80000
 368,74;  -25,600; -528,000;    0,000;502,40000
 368,75;   12,000;  303,000;    0,000;-291,00000
 368,76;  -27,600;  370,000;    0,000;-397,60000
 368,77;   54,800; -217,000;    0,000;271,80000
 368,78;   28,600; -480,000;    0,000;508,60000
 368,79;   31,800; -204,000;    0,000;235,80000
 368,80;   -8,200; -243,000;    0,000;234,80000
 368,81;   33,000;    7,000;    0,000;26,00000
 368,82;  -17,600; -497,000;    0,000;479,40000
 368,83;   -9,000; -492,000;    0,000;483,00000
 368,84;   24,000; -524,000;    0,000;548,00000
 368,85;   13,400; -159,000;    0,000;172,40000
 368,86;   -3,000; -445,000;    0,000;442,00000
 368,87;   30,600; -522,000;    0,000;552,60000
 368,88;   35,600; -216,000;    0,000;251,60000
 368,89;   16,800; -306,000;    0,000;322,80000
 368,90;   -1,000; -466,000;    0,000;465,00000
 368,91;    3,400; -820,000;    0,000;823,40000
 368,92;   10,400;  -87,000;    0,000;97,40000
 368,93;   35,200;   36,000;    0,000;-0,80000
 368,94;    1,800; -577,000;    0,000;578,80000
 368,95;   14,400; -485,000;    0,000;499,40000
 368,96;    0,000; -250,000;    0,000;250,00000
 368,97;   18,800; -295,000;    0,000;313,80000
 368,98;   -1,200; -420,000;    0,000;418,80000
 368,99;   -7,800; -262,000;    0,000;254,20000
 369,00;   25,400; -333,000;    0,000;358,40000
 369,01;   20,400; -217,000;    0,000;237,40000
 369,02;  -14,600; -566,000;    0,000;551,40000
 369,03;  -17,000; -270,000;    0,000;253,00000
 369,04;   38,200; -407,000;    0,000;445,20000
 369,05;    9,400; -210,000;    0,000;219,40000
 369,06;  -19,000; -353,000;    0,000;334,00000
 369,07;    3,200; -339,000;    0,000;342,20000
 369,08;  -40,000; -335,000;    0,000;295,00000
 369,09;   31,600;  587,000;    0,000;-555,40000
 369,10;   -9,400; -627,000;    0,000;617,60000
 369,11;  -14,400; -274,000;    0,000;259,60000
 369,12;   -4,400; -386,000;    0,000;381,60000
 369,13;   22,400;  -55,000;    0,000;77,40000
 369,14;   14,400;  -27,000;    0,000;41,40000
 369,15;  -19,200; -545,000;    0,000;525,80000
 369,16;  -17,600; -431,000;    0,000;413,40000
 369,17;   29,000; -283,000;    0,000;312,00000
 369,18;    0,000; -316,000;    0,000;316,00000
 369,19;    8,400; -571,000;    0,000;579,40000
 369,20;    5,200; -441,000;    0,000;446,20000
 369,21;   44,800; -347,000;    0,000;391,80000
 369,22;   -9,800; -634,000;    0,000;624,20000
 369,23;   49,400;  134,000;    0,000;-84,60000
 369,24;   23,200; -186,000;    0,000;209,20000
 369,25;   58,200; -262,000;    0,000;320,20000
 369,26;    8,200; -642,000;    0,000;650,20000
 369,27;   27,400;  -91,000;    0,000;118,40000
 369,28;  -36,000;  -61,000;    0,000;25,00000
 369,29;   21,200; -237,000;    0,000;258,20000
 369,30;   -1,800; -575,000;    0,000;573,20000
 369,31;    3,600; -269,000;    0,000;272,60000
 369,32;  -27,400; -428,000;    0,000;400,60000
 369,33;   15,000; -300,000;    0,000;315,00000
 369,34;   -2,800; -623,000;    0,000;620,20000
 369,35;   -3,200; -141,000;    0,000;137,80000
 369,36;  -17,200; -251,000;    0,000;233,80000
 369,37;   38,200; -200,000;    0,000;238,20000
 369,38;   -9,200;   72,000;    0,000;-81,20000
 369,39;    3,200;  -49,000;    0,000;52,20000
 369,40;  -12,000; -221,000;    0,000;209,00000
 369,41;   25,000; -313,000;    0,000;338,00000
 369,42;   -3,800; -450,000;    0,000;446,20000
 369,43;   -1,800;   48,000;    0,000;-49,80000
 369,44;   -6,200; -353,000;    0,000;346,80000
 369,45;   28,800;  -38,000;    0,000;66,80000
 369,46;  -12,400; -341,000;    0,000;328,60000
 369,47;   27,000;  -67,000;    0,000;94,00000
 369,48;  -11,600; -270,000;    0,000;258,40000
 369,49;   -4,800;    6,000;    0,000;-10,80000
 369,50;   -7,800; -513,000;    0,000;505,20000
 369,51;   11,600; -104,000;    0,000;115,60000
 369,52;  -24,000; -280,000;    0,000;256,00000
 369,53;   22,600; -573,000;    0,000;595,60000
 369,54;  -22,600; -445,000;    0,000;422,40000
 369,55;   37,000; -274,000;    0,000;311,00000
 369,56;   28,400; -502,000;    0,000;530,40000
 369,57;   28,800; -246,000;    0,000;274,80000
 369,58;   -1,400; -725,000;    0,000;723,60000
 369,59;   26,800; -522,000;    0,000;548,80000
 369,60;  -16,800;  -85,000;    0,000;68,20000
 369,61;   -5,000; -311,000;    0,000;306,00000
 369,62;  -29,000; -347,000;    0,000;318,00000
 369,63;   27,200;  262,000;    0,000;-234,80000
 369,64;   10,600; -151,000;    0,000;161,60000
 369,65;    8,800; -136,000;    0,000;144,80000
 369,66;  -22,000; -528,000;    0,000;506,00000
 369,67;   25,600; -295,000;    0,000;320,60000
 369,68;   27,000; -283,000;    0,000;310,00000
 369,69;   19,800;  165,000;    0,000;-145,20000
 369,70;   -5,200; -474,000;    0,000;468,80000
 369,71;    9,000; -466,000;    0,000;475,00000
 369,72;   28,400;  -58,000;    0,000;86,40000
 369,73;   15,000;  183,000;    0,000;-168,00000
 369,74;  -41,600; -464,000;    0,000;422,40000
 369,75;  -18,600; -393,000;    0,000;374,40000
 369,76;  -10,200; -251,000;    0,000;240,80000
 369,77;   16,400; -485,000;    0,000;501,40000
 369,78;  -16,200; -451,000;    0,000;434,80000
 369,79;   24,400; -254,000;    0,000;278,40000
 369,80;  -18,000; -397,000;    0,000;379,00000
 369,81;   14,200;   61,000;    0,000;-46,80000
 369,82;  -10,400; -693,000;    0,000;682,60000
 369,83;   -9,400; -459,000;    0,000;449,60000
 369,84;  -18,600; -351,000;    0,000;332,40000
 369,85;   23,800;   62,000;    0,000;-38,20000
 369,86;  -22,800; -616,000;    0,000;593,20000
 369,87;  -14,800; -430,000;    0,000;415,20000
 369,88;  -19,200; -220,000;    0,000;200,80000
 369,89;    7,200; -273,000;    0,000;280,20000
 369,90;   -3,400; -161,000;    0,000;157,60000
 369,91;   24,000; -376,000;    0,000;400,00000
 369,92;  -12,400;  -69,000;    0,000;56,60000
 369,93;   29,400; -256,000;    0,000;285,40000
 369,94;   10,600; -269,000;    0,000;279,60000
 369,95;   21,200; -576,000;    0,000;597,20000
 369,96;   -7,400;  152,000;    0,000;-159,40000
 369,97;   30,800; -356,000;    0,000;386,80000
 369,98;  -27,600; -214,000;    0,000;186,40000
 369,99;   28,600; -114,000;    0,000;142,60000
 370,00;    9,200;  -34,000;    0,000;43,20000
 370,01;    2,000;  184,000;    0,000;-182,00000
 370,02;  -42,800; -536,000;    0,000;493,20000
 370,03;  -16,200; -445,000;    0,000;428,80000
 370,04;   -5,600;  215,000;    0,000;-220,60000
 370,05;   25,600; -123,000;    0,000;148,60000
 370,06;  -12,000; -544,000;    0,000;532,00000
 370,07;   -1,600; -286,000;    0,000;284,40000
 370,08;   12,200; -523,000;    0,000;535,20000
 370,09;  -16,000;  556,000;    0,000;-572,00000
 370,10;  -21,000; -520,000;    0,000;499,00000
 370,11;   34,600; -330,000;    0,000;364,60000
 370,12;  -21,800; -457,000;    0,000;435,20000
 370,13;    6,200; -519,000;    0,000;525,20000
 370,14;   -3,200; -156,000;    0,000;152,80000
 370,14;  -31,400; -320,000;    0,000;288,60000
 370,15;  -26,200; -219,000;    0,000;192,80000
 370,16;   15,400; -440,000;    0,000;455,40000
 370,17;  -10,800; -566,000;    0,000;555,20000
 370,18;   42,400;  -88,000;    0,000;130,40000
 370,19;  -14,000;  -76,000;    0,000;62,00000
 370,20;   -2,600;  151,000;    0,000;-153,60000
 370,21;    6,400; -340,000;    0,000;346,40000
 370,22;   37,400; -297,000;    0,000;334,40000
 370,23;  -32,200; -496,000;    0,000;463,80000
 370,24;   15,200; -228,000;    0,000;243,20000
 370,25;   15,200;  225,000;    0,000;-209,80000
 370,26;  -38,600; -580,000;    0,000;541,40000
 370,27;   13,400;  -69,000;    0,000;82,40000
 370,28;   35,000;   70,000;    0,000;-35,00000
 370,29;    8,200; -868,000;    0,000;876,20000
 370,30;  -16,200; -419,000;    0,000;402,80000
 370,31;   -5,400; -216,000;    0,000;210,60000
 370,32;   29,000; -204,000;    0,000;233,00000
 370,33;  -15,800; -723,000;    0,000;707,20000
 370,34;  -15,000;  -72,000;    0,000;57,00000
 370,35;    2,200; -400,000;    0,000;402,20000
 370,36;   -1,800; -100,000;    0,000;98,20000
 370,37;   12,800; -656,000;    0,000;668,80000
 370,38;   -0,800; -279,000;    0,000;278,20000
 370,39;   15,800; -320,000;    0,000;335,80000
 370,40;   -5,200; -314,000;    0,000;308,80000
 370,41;  -46,200; -422,000;    0,000;375,80000
 370,42;   -3,600; -548,000;    0,000;544,40000
 370,43;   18,400; -482,000;    0,000;500,40000
 370,44;   -9,200; -278,000;    0,000;268,80000
 370,45;   10,400; -521,000;    0,000;531,40000
 370,46;  -12,200; -191,000;    0,000;178,80000
 370,47;   20,600;   74,000;    0,000;-53,40000
 370,48;   13,000; -147,000;    0,000;160,00000
 370,49;  -20,200; -839,000;    0,000;818,80000
 370,50;    6,400; -360,000;    0,000;366,40000
 370,50;  -22,400; -402,000;    0,000;379,60000
 370,51;    0,200; -207,000;    0,000;207,20000
 370,52;    0,400;   48,000;    0,000;-47,60000
 370,53;    3,400; -339,000;    0,000;342,40000
 370,54;  -14,800;  -92,000;    0,000;77,20000
 370,55;  -10,200; -215,000;    0,000;204,80000
 370,56;   20,400; -306,000;    0,000;326,40000
 370,57;   -1,400; -318,000;    0,000;316,60000
 370,58;  -20,200; -170,000;    0,000;149,80000
 370,59;  -14,000;  124,000;    0,000;-138,00000
 370,60;  -43,600; -406,000;    0,000;362,40000
 370,61;   43,800; -133,000;    0,000;176,80000
 370,62;   33,000;  -73,000;    0,000;106,00000
 370,63;  -17,200; -327,000;    0,000;309,80000
 370,64;  -26,400; -450,000;    0,000;423,60000
 370,65;  -10,000;  -75,000;    0,000;65,00000
 370,66;  -30,000; -539,000;    0,000;509,00000
 370,67;    3,600;  -30,000;    0,000;33,60000
 370,68;   25,400; -438,000;    0,000;463,40000
 370,69;    0,400; -475,000;    0,000;475,40000
 370,70;    7,200; -312,000;    0,000;319,20000
 370,71;   41,200; -269,000;    0,000;310,20000
 370,72;  -45,400; -573,000;    0,000;527,60000
 370,73;   18,600; -329,000;    0,000;347,60000
 370,74;   16,800; -338,000;    0,000;354,80000
 370,75;  -38,000; -406,000;    0,000;368,00000
 370,76;  -41,400; -475,000;    0,000;433,60000
 370,76;   26,400; -316,000;    0,000;342,40000
 370,77;  -28,200; -393,000;    0,000;364,80000
 370,78;    1,200; -205,000;    0,000;206,20000
 370,79;   30,000; -553,000;    0,000;583,00000
 370,80;   30,600;  159,000;    0,000;-128,40000
 370,81;  -22,600;  -82,000;    0,000;59,40000
 370,82;    6,200;  -92,000;    0,000;98,20000
 370,83;   -5,400; -231,000;    0,000;225,60000
 370,84;    3,800; -406,000;    0,000;409,80000
 370,85;  -22,200; -191,000;    0,000;168,80000
 370,86;   40,000;  161,000;    0,000;-121,00000
 370,87;    8,000; -320,000;    0,000;328,00000
 370,88;   20,200; -139,000;    0,000;159,20000
 370,89;    2,200; -245,000;    0,000;247,20000
 370,90;   65,000; -133,000;    0,000;198,00000
 370,91;   -4,000; -480,000;    0,000;476,00000
 370,92;   16,000; -240,000;    0,000;256,00000
 370,93;  -48,600; -370,000;    0,000;321,40000
 370,94;   28,800; -186,000;    0,000;214,80000
 370,95;  -10,400;  -39,000;    0,000;28,60000
 370,96;   35,600; -254,000;    0,000;289,60000
 370,97;   -9,200; -458,000;    0,000;448,80000
 370,98;   -7,400; -261,000;    0,000;253,60000
 370,98;  -15,800; -237,000;    0,000;221,20000
 370,99;   28,400; 1753,000;    0,000;-1724,60000
 371,00;    7,600; -139,000;    0,000;146,60000
 371,01;   16,200; -173,000;    0,000;189,20000
 371,02;   16,600;  -39,000;    0,000;55,60000
 371,03;    8,800; -496,000;    0,000;504,80000

