Hydrogen A_1
Integration time [ms]: 333,000
Averaging Nr. [scans]: 10
Smoothing Nr. [pixels]: 0
Data measured with spectrometer [name]: 1804345U2
Wave   ;Sample   ;Dark     ;Reference;Scope Corrected for Dark
[nm]   ;[counts] ;[counts] ;[counts] 

 318,09;  -77,800;  -70,800;    0,000;-7,00000
 318,11;   30,100;   34,900;    0,000;-4,80000
 318,13;    4,000;  -22,900;    0,000;26,90000
 318,15; -136,700; -121,600;    0,000;-15,10000
 318,16; -125,500; -162,700;    0,000;37,20000
 318,18;    9,400;   60,000;    0,000;-50,60000
 318,20;  -16,800;  -18,800;    0,000; 2,00000
 318,22;  -72,500;   -5,000;    0,000;-67,50000
 318,24;   14,700;  -27,200;    0,000;41,90000
 318,26;  106,700;   96,800;    0,000; 9,90000
 318,28;   31,400;    8,400;    0,000;23,00000
 318,30;   35,600;   76,300;    0,000;-40,70000
 318,32;   13,700;  -40,900;    0,000;54,60000
 318,34;   33,300;   69,700;    0,000;-36,40000
 318,36;   19,800;   -7,900;    0,000;27,70000
 318,38;   68,400;  100,200;    0,000;-31,80000
 318,40;   62,600;   61,900;    0,000; 0,70000
 318,42; -221,200; -188,400;    0,000;-32,80000
 318,43;  -42,500;  -73,200;    0,000;30,70000
 318,45;  -54,400;  -15,400;    0,000;-39,00000
 318,47; -144,300; -130,800;    0,000;-13,50000
 318,49;    2,800;   35,300;    0,000;-32,50000
 318,51;  141,900;  101,200;    0,000;40,70000
 318,53;  126,900;  162,300;    0,000;-35,40000
 318,55;   -3,200;  -32,600;    0,000;29,40000
 318,57;   61,000;  111,100;    0,000;-50,10000
 318,59;  -22,700;  -25,000;    0,000; 2,30000
 318,61;  -90,100;  -80,200;    0,000;-9,90000
 318,63;  -56,600;  -62,000;    0,000; 5,40000
 318,65; -113,700;  -60,400;    0,000;-53,30000
 318,67; -101,200;  -89,200;    0,000;-12,00000
 318,68;   52,000;   79,900;    0,000;-27,90000
 318,70;  -93,800; -121,400;    0,000;27,60000
 318,72;   79,400;  147,600;    0,000;-68,20000
 318,74; -174,100; -154,300;    0,000;-19,80000
 318,76;  188,400;  218,000;    0,000;-29,60000
 318,78;   96,900;   81,800;    0,000;15,10000
 318,80;   12,600;   62,400;    0,000;-49,80000
 318,82;  -23,000;  -51,800;    0,000;28,80000
 318,84;   30,900;   50,200;    0,000;-19,30000
 318,86;  -52,400;  -83,200;    0,000;30,80000
 318,88;    6,500;   42,600;    0,000;-36,10000
 318,90;    5,400;   -1,600;    0,000; 7,00000
 318,92;   65,600;   74,400;    0,000;-8,80000
 318,93;  115,000;   84,400;    0,000;30,60000
 318,95;   83,300;  111,400;    0,000;-28,10000
 318,97;   64,300;   66,700;    0,000;-2,40000
 318,99;   -6,200;   27,800;    0,000;-34,00000
 319,01;   25,500;    9,900;    0,000;15,60000
 319,03;  -88,200;  -77,100;    0,000;-11,10000
 319,05;  127,900;  108,300;    0,000;19,60000
 319,07; -222,700; -185,300;    0,000;-37,40000
 319,09;   53,800;   54,000;    0,000;-0,20000
 319,11;  -44,100;  -36,400;    0,000;-7,70000
 319,13;  213,200;  180,400;    0,000;32,80000
 319,15;  -39,500;  -21,100;    0,000;-18,40000
 319,17;   11,000;   -9,600;    0,000;20,60000
 319,18;  -61,100;  -37,300;    0,000;-23,80000
 319,20;   14,200;   -7,000;    0,000;21,20000
 319,22;   95,800;  116,400;    0,000;-20,60000
 319,24;  -40,100;  -66,200;    0,000;26,10000
 319,26;   47,900;   70,300;    0,000;-22,40000
 319,28;   75,900;   89,400;    0,000;-13,50000
 319,30;  111,200;  181,900;    0,000;-70,70000
 319,32;    2,200;  -20,200;    0,000;22,40000
 319,34;  130,500;  120,100;    0,000;10,40000
 319,36; -115,800; -142,200;    0,000;26,40000
 319,38;  -11,000;   31,700;    0,000;-42,70000
 319,40; -141,600; -125,500;    0,000;-16,10000
 319,41;   57,900;  109,900;    0,000;-52,00000
 319,43;   52,900;   38,900;    0,000;14,00000
 319,45;  110,200;  171,900;    0,000;-61,70000
 319,47;  -21,800;  -56,500;    0,000;34,70000
 319,49; -102,100;  -86,100;    0,000;-16,00000
 319,51;  -20,300;  -32,700;    0,000;12,40000
 319,53;    2,900;   26,800;    0,000;-23,90000
 319,55;  167,600;  129,900;    0,000;37,70000
 319,57;  -89,400;  -72,800;    0,000;-16,60000
 319,59;   11,000;   27,600;    0,000;-16,60000
 319,61;  -58,800;  -49,400;    0,000;-9,40000
 319,62;   98,800;   88,100;    0,000;10,70000
 319,64;   63,100;  100,300;    0,000;-37,20000
 319,66;   14,300;  -23,100;    0,000;37,40000
 319,68;   66,200;   88,400;    0,000;-22,20000
 319,70; -153,000; -164,000;    0,000;11,00000
 319,72;   91,800;  101,400;    0,000;-9,60000
 319,74;   76,000;   45,500;    0,000;30,50000
 319,76;  -30,900;  -23,600;    0,000;-7,30000
 319,78;  -50,100;  -44,100;    0,000;-6,00000
 319,80;   11,300;   21,600;    0,000;-10,30000
 319,82;   57,400;   51,600;    0,000; 5,80000
 319,83;  -29,600;   21,000;    0,000;-50,60000
 319,85;  -51,600;  -75,400;    0,000;23,80000
 319,87;  -14,700;   -1,300;    0,000;-13,40000
 319,89;  -96,000;  -89,000;    0,000;-7,00000
 319,91;  -71,300;  -70,500;    0,000;-0,80000
 319,93;   94,600;   41,800;    0,000;52,80000
 319,95;  -96,800;  -70,600;    0,000;-26,20000
 319,97;  -95,800; -121,800;    0,000;26,00000
 319,99; -101,200;  -46,400;    0,000;-54,80000
 320,01;   12,600;    9,800;    0,000; 2,80000
 320,03; -258,100; -196,800;    0,000;-61,30000
 320,04;   43,300;   13,700;    0,000;29,60000
 320,06;   60,600;   93,200;    0,000;-32,60000
 320,08; -127,400;  -87,300;    0,000;-40,10000
 320,10;  216,500;  253,800;    0,000;-37,30000
 320,12;  -51,400;  -54,300;    0,000; 2,90000
 320,14;   41,800;   44,400;    0,000;-2,60000
 320,16;   30,700;    1,900;    0,000;28,80000
 320,18;    1,400;   33,100;    0,000;-31,70000
 320,20;  -19,800;  -45,700;    0,000;25,90000
 320,22;  -54,800;   14,200;    0,000;-69,00000
 320,24;  -81,200;  -96,200;    0,000;15,00000
 320,25;  102,800;  138,800;    0,000;-36,00000
 320,27;   27,200;    4,800;    0,000;22,40000
 320,29;   -1,400;   31,400;    0,000;-32,80000
 320,31;  -43,900;  -13,800;    0,000;-30,10000
 320,33;  125,400;  142,200;    0,000;-16,80000
 320,35;   -7,200;  -23,300;    0,000;16,10000
 320,37;  -96,100;  -91,100;    0,000;-5,00000
 320,39; -133,000; -168,500;    0,000;35,50000
 320,41;  -95,300;  -30,500;    0,000;-64,80000
 320,43;   62,300;   58,400;    0,000; 3,90000
 320,44;  -66,400;  -47,300;    0,000;-19,10000
 320,46;   71,600;  109,700;    0,000;-38,10000
 320,48;   27,900;   47,300;    0,000;-19,40000
 320,50;  122,800;  103,300;    0,000;19,50000
 320,52; -107,100;  -61,000;    0,000;-46,10000
 320,54;  120,500;  118,500;    0,000; 2,00000
 320,56;   66,100;   59,600;    0,000; 6,50000
 320,58;  282,700;  277,500;    0,000; 5,20000
 320,60;  -95,500;  -63,500;    0,000;-32,00000
 320,62; -247,100; -246,300;    0,000;-0,80000
 320,64;  -60,600;  -59,000;    0,000;-1,60000
 320,65; -158,300; -171,300;    0,000;13,00000
 320,67;  -48,300;  -23,200;    0,000;-25,10000
 320,69;  209,900;  179,400;    0,000;30,50000
 320,71;  238,900;  275,500;    0,000;-36,60000
 320,73;  262,600;  205,400;    0,000;57,20000
 320,75;   25,900;   33,100;    0,000;-7,20000
 320,77;   -0,300;  -19,900;    0,000;19,60000
 320,79;  -50,900;  -72,800;    0,000;21,90000
 320,81;  -77,100;  -99,100;    0,000;22,00000
 320,83;   42,200;   61,300;    0,000;-19,10000
 320,84;  247,900;  228,900;    0,000;19,00000
 320,86;  -82,900;  -53,700;    0,000;-29,20000
 320,88; -167,200; -209,400;    0,000;42,20000
 320,90; -155,100;  -88,000;    0,000;-67,10000
 320,92;  -48,300;  -56,000;    0,000; 7,70000
 320,94;   36,800;   72,400;    0,000;-35,60000
 320,96; -104,100; -122,400;    0,000;18,30000
 320,98;  -30,800;  -13,400;    0,000;-17,40000
 321,00;  -67,100;  -75,100;    0,000; 8,00000
 321,01;   -6,500;   51,500;    0,000;-58,00000
 321,03;   26,900;   36,300;    0,000;-9,40000
 321,05;  178,200;  195,000;    0,000;-16,80000
 321,07;  -32,700;  -16,200;    0,000;-16,50000
 321,09;  -10,300;   29,200;    0,000;-39,50000
 321,11;  -53,600;  -83,000;    0,000;29,40000
 321,13;  -85,700;  -68,500;    0,000;-17,20000
 321,15;  -86,400;  -97,400;    0,000;11,00000
 321,17;  279,100;  304,400;    0,000;-25,30000
 321,19;   65,500;   35,200;    0,000;30,30000
 321,20; -103,800;  -20,100;    0,000;-83,70000
 321,22;   38,300;   38,200;    0,000; 0,10000
 321,24;  -45,400;    0,300;    0,000;-45,70000
 321,26;  -89,900;  -89,700;    0,000;-0,20000
 321,28;  -71,900;  -31,500;    0,000;-40,40000
 321,30;   98,300;   74,500;    0,000;23,80000
 321,32;   13,300;   33,600;    0,000;-20,30000
 321,34; -110,300; -117,100;    0,000; 6,80000
 321,36;    8,500;   44,100;    0,000;-35,60000
 321,37;  168,300;  148,200;    0,000;20,10000
 321,39;  -40,800;   22,300;    0,000;-63,10000
 321,41;   60,800;   45,700;    0,000;15,10000
 321,43;  -68,300;  -61,200;    0,000;-7,10000
 321,45;  128,400;   96,900;    0,000;31,50000
 321,47;   79,400;  105,600;    0,000;-26,20000
 321,49;   19,700;   16,700;    0,000; 3,00000
 321,51;  -84,300;  -73,600;    0,000;-10,70000
 321,53;   -7,100;  -21,000;    0,000;13,90000
 321,54;  -26,900;  -29,000;    0,000; 2,10000
 321,56;  -47,400;  -51,000;    0,000; 3,60000
 321,58;  -82,200;  -61,900;    0,000;-20,30000
 321,60;  127,100;  114,100;    0,000;13,00000
 321,62;  113,100;  132,600;    0,000;-19,50000
 321,64;   55,500;   36,400;    0,000;19,10000
 321,66;   36,800;   49,200;    0,000;-12,40000
 321,68;   88,800;   64,200;    0,000;24,60000
 321,70;   88,100;  116,200;    0,000;-28,10000
 321,71; -145,800; -126,400;    0,000;-19,40000
 321,73;  -19,700;   22,400;    0,000;-42,10000
 321,75;  -39,300;  -49,200;    0,000; 9,90000
 321,77;  -80,100;  -47,900;    0,000;-32,20000
 321,79;    5,900;   12,000;    0,000;-6,10000
 321,81;    9,400;   20,300;    0,000;-10,90000
 321,83;  105,200;   62,000;    0,000;43,20000
 321,85;   74,700;  122,500;    0,000;-47,80000
 321,87;   10,700;  -15,000;    0,000;25,70000
 321,88;   -0,700;   31,600;    0,000;-32,30000
 321,90;  122,100;  142,500;    0,000;-20,40000
 321,92;  -24,800;   44,400;    0,000;-69,20000
 321,94;   39,400;  -11,200;    0,000;50,60000
 321,96;  -23,700;   17,400;    0,000;-41,10000
 321,98;  174,800;  174,800;    0,000; 0,00000
 322,00;  110,800;  139,200;    0,000;-28,40000
 322,02;  -74,500;  -81,300;    0,000; 6,80000
 322,04; -229,200; -215,900;    0,000;-13,30000
 322,05;  -14,200;  -10,100;    0,000;-4,10000
 322,07;  -72,800; -100,200;    0,000;27,40000
 322,09;  -84,200; -131,200;    0,000;47,00000
 322,11;  -50,700;  -24,700;    0,000;-26,00000
 322,13;   47,700;   32,400;    0,000;15,30000
 322,15;  158,200;  207,700;    0,000;-49,50000
 322,17;  -23,500;  -49,800;    0,000;26,30000
 322,19; -179,600; -141,000;    0,000;-38,60000
 322,20;  -40,300;  -69,000;    0,000;28,70000
 322,22;  189,400;  207,000;    0,000;-17,60000
 322,24;  -79,600;  -29,900;    0,000;-49,70000
 322,26; -182,500; -110,400;    0,000;-72,10000
 322,28;  -15,000;  -55,300;    0,000;40,30000
 322,30;  -20,000;   41,700;    0,000;-61,70000
 322,32; -114,300; -142,600;    0,000;28,30000
 322,34; -157,800;  -79,500;    0,000;-78,30000
 322,36;  -95,200;  -51,400;    0,000;-43,80000
 322,37;   -1,900;   37,000;    0,000;-38,90000
 322,39;  -67,100;  -74,000;    0,000; 6,90000
 322,41;   45,500;   86,900;    0,000;-41,40000
 322,43;  149,300;  132,300;    0,000;17,00000
 322,45;   74,300;  105,000;    0,000;-30,70000
 322,47;   96,100;   70,300;    0,000;25,80000
 322,49; -145,000; -124,000;    0,000;-21,00000
 322,51;  -83,700; -109,300;    0,000;25,60000
 322,52;  -89,200;  -47,700;    0,000;-41,50000
 322,54;  -77,000;  -59,800;    0,000;-17,20000
 322,56; -270,700; -224,400;    0,000;-46,30000
 322,58;   47,100;   45,700;    0,000; 1,40000
 322,60;  -93,800;  -78,900;    0,000;-14,90000
 322,62;   91,200;   73,100;    0,000;18,10000
 322,64;   55,000;   87,900;    0,000;-32,90000
 322,66;   61,100;   61,500;    0,000;-0,40000
 322,67;  223,500;  276,300;    0,000;-52,80000
 322,69;   56,500;   28,700;    0,000;27,80000
 322,71; -109,300;  -57,500;    0,000;-51,80000
 322,73;  156,900;  151,000;    0,000; 5,90000
 322,75;   71,900;   72,500;    0,000;-0,60000
 322,77;   64,500;   54,100;    0,000;10,40000
 322,79;   48,700;   93,500;    0,000;-44,80000
 322,81;  235,400;  217,500;    0,000;17,90000
 322,82; -204,400; -164,800;    0,000;-39,60000
 322,84;   75,100;  102,100;    0,000;-27,00000
 322,86; -111,100;  -85,300;    0,000;-25,80000
 322,88;  -45,700;  -43,800;    0,000;-1,90000
 322,90;  136,600;  166,600;    0,000;-30,00000
 322,92;   46,300;   85,100;    0,000;-38,80000
 322,94; -142,000; -118,300;    0,000;-23,70000
 322,96;  -49,700;  -42,600;    0,000;-7,10000
 322,97;   24,300;   34,000;    0,000;-9,70000
 322,99;    6,000;   10,800;    0,000;-4,80000
 323,01;  -54,900;  -23,800;    0,000;-31,10000
 323,03;   61,800;   53,100;    0,000; 8,70000
 323,05;  133,400;  171,100;    0,000;-37,70000
 323,07;  -46,400;  -31,800;    0,000;-14,60000
 323,09;  -44,000;  -33,900;    0,000;-10,10000
 323,11;   93,400;   66,800;    0,000;26,60000
 323,12;  -69,100;  -52,700;    0,000;-16,40000
 323,14; -131,300; -132,900;    0,000; 1,60000
 323,16;  -14,900;   34,900;    0,000;-49,80000
 323,18;    2,900;  -27,600;    0,000;30,50000
 323,20;   66,300;   95,400;    0,000;-29,10000
 323,22;  116,800;  125,800;    0,000;-9,00000
 323,24; -105,000;  -53,600;    0,000;-51,40000
 323,25;  -23,300;    2,400;    0,000;-25,70000
 323,27; -177,000; -138,700;    0,000;-38,30000
 323,29;   95,600;   99,000;    0,000;-3,40000
 323,31; -136,800; -125,200;    0,000;-11,60000
 323,33;   50,900;    9,600;    0,000;41,30000
 323,35;  -80,400;  -18,200;    0,000;-62,20000
 323,37;  -23,000;  -18,400;    0,000;-4,60000
 323,39;  124,300;  169,200;    0,000;-44,90000
 323,40;  -49,100;  -59,100;    0,000;10,00000
 323,42;  -11,700;   30,500;    0,000;-42,20000
 323,44;  186,000;  164,900;    0,000;21,10000
 323,46; -110,700;  -63,200;    0,000;-47,50000
 323,48;   71,000;   77,000;    0,000;-6,00000
 323,50;  -15,500;   38,900;    0,000;-54,40000
 323,52;  -66,700;  -88,700;    0,000;22,00000
 323,53; -101,800;  -82,600;    0,000;-19,20000
 323,55;  -29,000;  -62,400;    0,000;33,40000
 323,57;  116,400;  160,800;    0,000;-44,40000
 323,59;  -60,300;  -71,300;    0,000;11,00000
 323,61;   -5,900;   42,600;    0,000;-48,50000
 323,63;  171,800;  157,900;    0,000;13,90000
 323,65;  -95,000;  -23,700;    0,000;-71,30000
 323,67;   64,300;   46,000;    0,000;18,30000
 323,68;   10,300;   89,200;    0,000;-78,90000
 323,70;   25,300;  -11,600;    0,000;36,90000
 323,72;   10,600;   47,500;    0,000;-36,90000
 323,74;  -12,000;   -1,700;    0,000;-10,30000
 323,76; -128,700; -110,300;    0,000;-18,40000
 323,78;  121,300;  133,000;    0,000;-11,70000
 323,80;  -54,700;  -23,300;    0,000;-31,40000
 323,81;  -58,600;  -84,500;    0,000;25,90000
 323,83;   87,000;  109,200;    0,000;-22,20000
 323,85;   54,800;   37,900;    0,000;16,90000
 323,87;  -99,500;  -67,800;    0,000;-31,70000
 323,89; -128,200; -167,100;    0,000;38,90000
 323,91; -185,600; -140,500;    0,000;-45,10000
 323,93;  -52,300;  -62,500;    0,000;10,20000
 323,94; -140,500;  -97,700;    0,000;-42,80000
 323,96;   44,000;   10,100;    0,000;33,90000
 323,98; -172,000; -153,600;    0,000;-18,40000
 324,00;  -11,600;  -24,700;    0,000;13,10000
 324,02;  -60,400;  -26,700;    0,000;-33,70000
 324,04;   53,100;   46,300;    0,000; 6,80000
 324,06; -335,000; -310,700;    0,000;-24,30000
 324,07;  -33,500;  -44,800;    0,000;11,30000
 324,09;   26,400;   68,400;    0,000;-42,00000
 324,11;   24,800;   50,100;    0,000;-25,30000
 324,13; -123,400; -122,000;    0,000;-1,40000
 324,15;    7,200;  -33,900;    0,000;41,10000
 324,17;   53,100;   37,000;    0,000;16,10000
 324,19;  -56,000;  -41,500;    0,000;-14,50000
 324,20;    8,200;   40,500;    0,000;-32,30000
 324,22;   43,200;  -19,000;    0,000;62,20000
 324,24;  -13,200;   -0,700;    0,000;-12,50000
 324,26;   15,400;   -8,600;    0,000;24,00000
 324,28; -140,600;  -96,800;    0,000;-43,80000
 324,30;   48,900;   47,500;    0,000; 1,40000
 324,32;  -70,300;  -15,900;    0,000;-54,40000
 324,33;  -96,500; -130,300;    0,000;33,80000
 324,35;   26,200;   71,500;    0,000;-45,30000
 324,37;  -68,100;  -60,800;    0,000;-7,30000
 324,39; -111,800;  -83,200;    0,000;-28,60000
 324,41;  -47,000;  -65,200;    0,000;18,20000
 324,43; -130,900; -106,300;    0,000;-24,60000
 324,45;  109,600;   77,300;    0,000;32,30000
 324,46; -142,500;  -90,300;    0,000;-52,20000
 324,48;  -88,200; -103,100;    0,000;14,90000
 324,50; -159,600; -137,200;    0,000;-22,40000
 324,52;  135,700;   79,600;    0,000;56,10000
 324,54;   -1,000;  -11,700;    0,000;10,70000
 324,56;  131,900;  145,500;    0,000;-13,60000
 324,58;  -22,600;  -14,400;    0,000;-8,20000
 324,59;   24,300;   38,500;    0,000;-14,20000
 324,61;  -67,100;  -42,100;    0,000;-25,00000
 324,63;   -1,000;    6,200;    0,000;-7,20000
 324,65; -100,300;  -99,700;    0,000;-0,60000
 324,67;   73,700;   76,500;    0,000;-2,80000
 324,69;  -20,100;  -12,300;    0,000;-7,80000
 324,71;   24,600;   16,400;    0,000; 8,20000
 324,72; -192,800; -165,400;    0,000;-27,40000
 324,74;   65,000;   42,900;    0,000;22,10000
 324,76;  -32,000;  -26,500;    0,000;-5,50000
 324,78;  -64,500;  -65,900;    0,000; 1,40000
 324,80;   12,400;   46,000;    0,000;-33,60000
 324,82;  -22,700;  -47,700;    0,000;25,00000
 324,83;  -23,900;   24,800;    0,000;-48,70000
 324,85;  -42,100;  -72,100;    0,000;30,00000
 324,87; -121,000; -111,600;    0,000;-9,40000
 324,89;  -97,800;  -73,600;    0,000;-24,20000
 324,91;  151,500;  192,800;    0,000;-41,30000
 324,93;  -10,300;  -42,300;    0,000;32,00000
 324,95;   66,300;   62,900;    0,000; 3,40000
 324,96;   25,400;   27,900;    0,000;-2,50000
 324,98;   58,000;  124,900;    0,000;-66,90000
 325,00;  -64,200;  -81,600;    0,000;17,40000
 325,02; -125,100; -111,900;    0,000;-13,20000
 325,04; -157,500; -148,600;    0,000;-8,90000
 325,06; -118,700;  -84,700;    0,000;-34,00000
 325,07;   34,100;   29,400;    0,000; 4,70000
 325,09;  -50,600;  -31,400;    0,000;-19,20000
 325,11;   -6,400;  -15,700;    0,000; 9,30000
 325,13; -236,400; -180,400;    0,000;-56,00000
 325,15;   86,600;   72,200;    0,000;14,40000
 325,17;  124,900;  123,200;    0,000; 1,70000
 325,19;  -30,200;  -65,300;    0,000;35,10000
 325,20; -147,700; -117,000;    0,000;-30,70000
 325,22;   46,000;   39,600;    0,000; 6,40000
 325,24;   17,900;   65,200;    0,000;-47,30000
 325,26;   28,000;   55,300;    0,000;-27,30000
 325,28;  165,200;  176,200;    0,000;-11,00000
 325,30;  188,800;  165,400;    0,000;23,40000
 325,31;  -23,500;   13,400;    0,000;-36,90000
 325,33;   55,000;   17,500;    0,000;37,50000
 325,35;  111,000;  176,600;    0,000;-65,60000
 325,37;   -3,600;  -13,100;    0,000; 9,50000
 325,39;  -29,400;   21,900;    0,000;-51,30000
 325,41;  -89,600; -102,700;    0,000;13,10000
 325,42; -101,400;  -84,300;    0,000;-17,10000
 325,44; -171,800; -177,900;    0,000; 6,10000
 325,46; -179,200; -144,400;    0,000;-34,80000
 325,48;   39,300;   -1,700;    0,000;41,00000
 325,50;  -64,600;  -57,300;    0,000;-7,30000
 325,52; -123,800; -123,800;    0,000; 0,00000
 325,54;  -54,600;   -2,300;    0,000;-52,30000
 325,55;  -90,300; -107,200;    0,000;16,90000
 325,57;  -53,000;  -46,400;    0,000;-6,60000
 325,59;   80,500;   71,300;    0,000; 9,20000
 325,61;   -1,200;   22,100;    0,000;-23,30000
 325,63;  152,800;  138,000;    0,000;14,80000
 325,65;  -51,600;  -16,600;    0,000;-35,00000
 325,66; -228,400; -201,100;    0,000;-27,30000
 325,68;  -93,100;  -48,100;    0,000;-45,00000
 325,70;   21,600;    5,800;    0,000;15,80000
 325,72;   12,800;   22,400;    0,000;-9,60000
 325,74;  -95,500;  -86,500;    0,000;-9,00000
 325,76;   85,700;  152,700;    0,000;-67,00000
 325,77;  -51,200;  -52,100;    0,000; 0,90000
 325,79; -234,500; -197,300;    0,000;-37,20000
 325,81;   -9,700;   -8,700;    0,000;-1,00000
 325,83;  -90,700;  -84,100;    0,000;-6,60000
 325,85;  -18,100;  -19,600;    0,000; 1,50000
 325,87;    4,900;   60,400;    0,000;-55,50000
 325,88;  -62,200;  -52,000;    0,000;-10,20000
 325,90; -130,700; -111,100;    0,000;-19,60000
 325,92;   -3,500;  -67,200;    0,000;63,70000
 325,94;   -8,400;   -0,900;    0,000;-7,50000
 325,96;   68,800;   25,700;    0,000;43,10000
 325,98;  -23,500;  -11,300;    0,000;-12,20000
 325,99;  -17,200;   -7,200;    0,000;-10,00000
 326,01;  103,000;   96,400;    0,000; 6,60000
 326,03;   16,500;   22,600;    0,000;-6,10000
 326,05;   29,600;   45,600;    0,000;-16,00000
 326,07;  136,300;  124,200;    0,000;12,10000
 326,09;  -74,200;  -26,800;    0,000;-47,40000
 326,10;  -17,500;  -24,000;    0,000; 6,50000
 326,12;   87,700;   91,400;    0,000;-3,70000
 326,14;   32,300;    2,000;    0,000;30,30000
 326,16; -185,200; -135,600;    0,000;-49,60000
 326,18;  -86,300;  -75,700;    0,000;-10,60000
 326,20;   -5,100;   59,100;    0,000;-64,20000
 326,21;  104,700;   94,200;    0,000;10,50000
 326,23;   71,800;   67,700;    0,000; 4,10000
 326,25; -111,900; -131,700;    0,000;19,80000
 326,27;   71,300;  116,600;    0,000;-45,30000
 326,29;   -8,400;  -55,100;    0,000;46,70000
 326,31;  -71,500;  -32,800;    0,000;-38,70000
 326,32; -136,700; -186,400;    0,000;49,70000
 326,34;  -25,900;   -4,600;    0,000;-21,30000
 326,36;  -65,200;  -25,800;    0,000;-39,40000
 326,38;  -22,100;  -12,800;    0,000;-9,30000
 326,40; -214,900; -194,700;    0,000;-20,20000
 326,42;   -1,300;   -5,600;    0,000; 4,30000
 326,43;  -20,700;  -17,100;    0,000;-3,60000
 326,45;   28,900;   45,100;    0,000;-16,20000
 326,47; -109,000; -132,400;    0,000;23,40000
 326,49;  105,800;  150,100;    0,000;-44,30000
 326,51;  -43,000;  -61,800;    0,000;18,80000
 326,53;   -0,300;   32,700;    0,000;-33,00000
 326,54;  -54,000; -104,400;    0,000;50,40000
 326,56; -182,400; -174,100;    0,000;-8,30000
 326,58;  -15,700;   11,700;    0,000;-27,40000
 326,60; -143,300; -133,400;    0,000;-9,90000
 326,62;  -68,400;  -96,000;    0,000;27,60000
 326,64;   38,400;   85,100;    0,000;-46,70000
 326,65;  -32,100;  -83,400;    0,000;51,30000
 326,67; -145,900; -103,100;    0,000;-42,80000
 326,69; -168,700; -146,400;    0,000;-22,30000
 326,71;  -71,300;  -24,800;    0,000;-46,50000
 326,73;   37,300;   76,400;    0,000;-39,10000
 326,74;  -93,600;  -57,600;    0,000;-36,00000
 326,76;  -64,600;  -88,400;    0,000;23,80000
 326,78;  -91,500;   -6,500;    0,000;-85,00000
 326,80; -129,100; -150,900;    0,000;21,80000
 326,82; -138,800;  -63,500;    0,000;-75,30000
 326,84;  -24,300;  -55,700;    0,000;31,40000
 326,85;   76,500;   87,100;    0,000;-10,60000
 326,87;   13,800;  -11,600;    0,000;25,40000
 326,89;   32,000;   92,900;    0,000;-60,90000
 326,91;    6,200;   15,900;    0,000;-9,70000
 326,93;   84,800;  134,600;    0,000;-49,80000
 326,95;   89,100;  105,500;    0,000;-16,40000
 326,96;   12,500;   42,800;    0,000;-30,30000
 326,98;  -94,100; -115,600;    0,000;21,50000
 327,00; -187,400; -134,100;    0,000;-53,30000
 327,02;  -38,500;  -66,100;    0,000;27,60000
 327,04; -179,000; -183,700;    0,000; 4,70000
 327,05;  -90,500; -129,000;    0,000;38,50000
 327,07; -246,600; -224,600;    0,000;-22,00000
 327,09;  -76,600;  -59,100;    0,000;-17,50000
 327,11;   23,900;   85,500;    0,000;-61,60000
 327,13;   -1,300;   15,900;    0,000;-17,20000
 327,15;  -23,800;   -3,300;    0,000;-20,50000
 327,16;  -34,800;  -65,000;    0,000;30,20000
 327,18;  -41,700;  -25,600;    0,000;-16,10000
 327,20; -173,600; -198,500;    0,000;24,90000
 327,22;  -68,300;  -33,400;    0,000;-34,90000
 327,24;   19,900;    3,000;    0,000;16,90000
 327,25;   75,500;   83,300;    0,000;-7,80000
 327,27;  109,300;   92,900;    0,000;16,40000
 327,29; -196,000; -190,900;    0,000;-5,10000
 327,31;   16,800;    1,200;    0,000;15,60000
 327,33;  231,500;  288,700;    0,000;-57,20000
 327,35; -146,400; -159,000;    0,000;12,60000
 327,36;  -36,600;  -51,400;    0,000;14,80000
 327,38;  -17,600;  -15,000;    0,000;-2,60000
 327,40;   61,600;   78,700;    0,000;-17,10000
 327,42;   14,500;  -10,900;    0,000;25,40000
 327,44; -200,600; -147,000;    0,000;-53,60000
 327,45;   80,800;   59,300;    0,000;21,50000
 327,47;   -3,000;   34,800;    0,000;-37,80000
 327,49; -223,300; -226,600;    0,000; 3,30000
 327,51; -194,900; -170,600;    0,000;-24,30000
 327,53;  -35,400;  -54,100;    0,000;18,70000
 327,55;  -52,700;    9,700;    0,000;-62,40000
 327,56; -214,200; -206,100;    0,000;-8,10000
 327,58;  -44,700;   -9,800;    0,000;-34,90000
 327,60; -137,300; -133,200;    0,000;-4,10000
 327,62;  -90,400;  -53,700;    0,000;-36,70000
 327,64;  -55,500;  -75,200;    0,000;19,70000
 327,65; -141,800; -117,500;    0,000;-24,30000
 327,67;  -55,300;  -67,500;    0,000;12,20000
 327,69;  -23,800;   18,800;    0,000;-42,60000
 327,71;   40,600;    8,100;    0,000;32,50000
 327,73; -246,700; -229,100;    0,000;-17,60000
 327,74;   -7,100;    3,100;    0,000;-10,20000
 327,76; -134,700; -105,100;    0,000;-29,60000
 327,78;   -7,800;  -21,900;    0,000;14,10000
 327,80;  -60,700;  -38,600;    0,000;-22,10000
 327,82;  -60,000;  -28,500;    0,000;-31,50000
 327,84;  -32,500;    6,100;    0,000;-38,60000
 327,85; -155,500; -158,600;    0,000; 3,10000
 327,87; -281,800; -245,800;    0,000;-36,00000
 327,89;   28,600;  -27,600;    0,000;56,20000
 327,91;  -88,600;  -59,200;    0,000;-29,40000
 327,93;  157,900;  118,100;    0,000;39,80000
 327,94; -146,900; -134,800;    0,000;-12,10000
 327,96;  -77,200; -101,900;    0,000;24,70000
 327,98;  -58,200;  -57,600;    0,000;-0,60000
 328,00; -174,500; -198,100;    0,000;23,60000
 328,02;   48,900;  105,300;    0,000;-56,40000
 328,03;  -33,300;  -73,000;    0,000;39,70000
 328,05;   30,000;   21,800;    0,000; 8,20000
 328,07;  -92,000; -131,800;    0,000;39,80000
 328,09; -228,800; -243,700;    0,000;14,90000
 328,11; -154,300; -181,600;    0,000;27,30000
 328,12;   73,300;  128,700;    0,000;-55,40000
 328,14;  -76,000; -102,900;    0,000;26,90000
 328,16;    6,400;   56,100;    0,000;-49,70000
 328,18;   36,600;   51,400;    0,000;-14,80000
 328,20;  -94,500; -125,600;    0,000;31,10000
 328,21; -105,800; -111,400;    0,000; 5,60000
 328,23;  -84,400;  -62,700;    0,000;-21,70000
 328,25;  204,900;  186,800;    0,000;18,10000
 328,27; -186,700; -164,000;    0,000;-22,70000
 328,29; -148,200; -169,300;    0,000;21,10000
 328,30;  -61,200;    4,100;    0,000;-65,30000
 328,32;    4,000;    0,700;    0,000; 3,30000
 328,34;  130,000;  150,300;    0,000;-20,30000
 328,36; -208,700; -215,700;    0,000; 7,00000
 328,38; -242,200; -199,200;    0,000;-43,00000
 328,40;  -66,300;  -92,300;    0,000;26,00000
 328,41;   57,800;   75,500;    0,000;-17,70000
 328,43;  153,600;  120,800;    0,000;32,80000
 328,45;  -12,200;   28,600;    0,000;-40,80000
 328,47;   -8,000;  -11,500;    0,000; 3,50000
 328,49;   31,800;   52,200;    0,000;-20,40000
 328,50;  -88,400; -138,800;    0,000;50,40000
 328,52; -101,200;  -79,800;    0,000;-21,40000
 328,54;  141,900;  104,600;    0,000;37,30000
 328,56;   17,800;   46,200;    0,000;-28,40000
 328,58;   72,000;   55,700;    0,000;16,30000
 328,59;   39,000;   74,000;    0,000;-35,00000
 328,61;  -23,300;  -41,300;    0,000;18,00000
 328,63;  -56,300;  -43,800;    0,000;-12,50000
 328,65;  -60,300;  -82,000;    0,000;21,70000
 328,67;  130,000;  151,900;    0,000;-21,90000
 328,68; -152,300; -171,400;    0,000;19,10000
 328,70; -123,800; -101,000;    0,000;-22,80000
 328,72;  -42,400;  -79,900;    0,000;37,50000
 328,74;  204,100;  217,300;    0,000;-13,20000
 328,76;  225,600;  202,000;    0,000;23,60000
 328,77;   -6,700;   25,000;    0,000;-31,70000
 328,79;  -79,400;  -85,200;    0,000; 5,80000
 328,81; -266,600; -202,500;    0,000;-64,10000
 328,83;   19,500;   10,000;    0,000; 9,50000
 328,85; -194,400; -166,600;    0,000;-27,80000
 328,86;  -71,700;  -63,600;    0,000;-8,10000
 328,88; -239,700; -242,100;    0,000; 2,40000
 328,90;   83,900;   84,800;    0,000;-0,90000
 328,92; -168,100; -129,000;    0,000;-39,10000
 328,93;   51,000;   10,600;    0,000;40,40000
 328,95; -104,900;  -81,700;    0,000;-23,20000
 328,97; -175,300; -192,100;    0,000;16,80000
 328,99;  -63,000;  -35,100;    0,000;-27,90000
 329,01;   54,400;    1,700;    0,000;52,70000
 329,02; -279,400; -271,200;    0,000;-8,20000
 329,04;  -45,800;  -50,600;    0,000; 4,80000
 329,06;  -78,400;  -41,300;    0,000;-37,10000
 329,08;  -28,700;  -55,800;    0,000;27,10000
 329,10; -142,400;  -95,300;    0,000;-47,10000
 329,11;  -55,900;  -80,800;    0,000;24,90000
 329,13;   64,700;   96,200;    0,000;-31,50000
 329,15;   32,100;   26,200;    0,000; 5,90000
 329,17;   -4,600;   37,400;    0,000;-42,00000
 329,19;  -46,800;  -52,700;    0,000; 5,90000
 329,20;   98,300;  101,800;    0,000;-3,50000
 329,22; -172,500; -183,600;    0,000;11,10000
 329,24;  -65,900;  -31,500;    0,000;-34,40000
 329,26;  -10,200;   27,900;    0,000;-38,10000
 329,28;  -36,500;   25,600;    0,000;-62,10000
 329,29;  -44,200;  -95,600;    0,000;51,40000
 329,31; -219,500; -186,300;    0,000;-33,20000
 329,33;  123,000;   90,700;    0,000;32,30000
 329,35;  158,500;  179,000;    0,000;-20,50000
 329,37; -167,900; -188,700;    0,000;20,80000
 329,38;  -69,300;  -40,200;    0,000;-29,10000
 329,40;   33,200;   34,800;    0,000;-1,60000
 329,42;   16,600;   54,000;    0,000;-37,40000
 329,44;  -92,700; -129,700;    0,000;37,00000
 329,45;  -27,700;   35,900;    0,000;-63,60000
 329,47;  143,000;  103,400;    0,000;39,60000
 329,49; -175,900; -134,600;    0,000;-41,30000
 329,51;  -14,000;   -5,300;    0,000;-8,70000
 329,53;  -90,500;  -47,900;    0,000;-42,60000
 329,54;  162,000;  131,500;    0,000;30,50000
 329,56;  -58,200;  -38,500;    0,000;-19,70000
 329,58; -120,600; -120,900;    0,000; 0,30000
 329,60;   14,500;   10,500;    0,000; 4,00000
 329,62;   -0,400;    8,600;    0,000;-9,00000
 329,63; -206,000; -153,300;    0,000;-52,70000
 329,65; -149,600; -167,300;    0,000;17,70000
 329,67; -131,300; -103,900;    0,000;-27,40000
 329,69;   74,000;   94,300;    0,000;-20,30000
 329,70;  158,200;  184,900;    0,000;-26,70000
 329,72;  135,000;  129,900;    0,000; 5,10000
 329,74;   15,600;   18,700;    0,000;-3,10000
 329,76; -170,100; -176,800;    0,000; 6,70000
 329,78;   32,400;   64,600;    0,000;-32,20000
 329,79;  125,800;  102,000;    0,000;23,80000
 329,81;  -81,600;  -42,600;    0,000;-39,00000
 329,83;   54,100;   32,900;    0,000;21,20000
 329,85;  -20,400;   -9,600;    0,000;-10,80000
 329,87;  323,700;  326,800;    0,000;-3,10000
 329,88;  -37,900;  -27,000;    0,000;-10,90000
 329,90;   -9,600;  -37,200;    0,000;27,60000
 329,92;  -51,600;  -48,000;    0,000;-3,60000
 329,94; -152,600; -158,300;    0,000; 5,70000
 329,95;   11,300;   68,900;    0,000;-57,60000
 329,97;   51,000;  -17,800;    0,000;68,80000
 329,99;   43,800;   90,700;    0,000;-46,90000
 330,01;  -89,700;  -91,900;    0,000; 2,20000
 330,03;   51,100;   55,700;    0,000;-4,60000
 330,04; -114,000; -162,800;    0,000;48,80000
 330,06;  -70,600;  -27,600;    0,000;-43,00000
 330,08; -147,700; -137,400;    0,000;-10,30000
 330,10;  -93,700;  -50,100;    0,000;-43,60000
 330,11; -136,200; -161,600;    0,000;25,40000
 330,13;  128,700;  154,500;    0,000;-25,80000
 330,15;  101,200;   95,100;    0,000; 6,10000
 330,17;   17,900;   45,000;    0,000;-27,10000
 330,19;  -18,300;  -67,500;    0,000;49,20000
 330,20;  -15,200;   -6,300;    0,000;-8,90000
 330,22; -260,000; -267,700;    0,000; 7,70000
 330,24; -156,700; -130,700;    0,000;-26,00000
 330,26; -133,000; -117,200;    0,000;-15,80000
 330,27; -105,300;  -71,400;    0,000;-33,90000
 330,29; -238,500; -256,200;    0,000;17,70000
 330,31;  -91,400; -116,100;    0,000;24,70000
 330,33;   54,800;   53,100;    0,000; 1,70000
 330,35;   -9,400;  -27,000;    0,000;17,60000
 330,36;   58,100;   79,400;    0,000;-21,30000
 330,38; -172,500; -127,900;    0,000;-44,60000
 330,40;  -12,300;   -4,600;    0,000;-7,70000
 330,42;  -52,200;  -54,400;    0,000; 2,20000
 330,43;  -64,300;  -67,700;    0,000; 3,40000
 330,45; -225,000; -242,800;    0,000;17,80000
 330,47; -104,700; -106,500;    0,000; 1,80000
 330,49; -122,000;  -67,800;    0,000;-54,20000
 330,51;   42,900;   35,400;    0,000; 7,50000
 330,52; -144,900; -115,600;    0,000;-29,30000
 330,54;   16,800;   26,400;    0,000;-9,60000
 330,56; -211,000; -191,500;    0,000;-19,50000
 330,58; -140,700; -170,200;    0,000;29,50000
 330,59; -166,900; -127,500;    0,000;-39,40000
 330,61;  -66,600;  -62,900;    0,000;-3,70000
 330,63;  -46,300;  -15,100;    0,000;-31,20000
 330,65;   12,100;   14,700;    0,000;-2,60000
 330,67; -116,400;  -78,800;    0,000;-37,60000
 330,68; -150,100; -141,100;    0,000;-9,00000
 330,70;  129,500;  147,000;    0,000;-17,50000
 330,72;   82,800;   97,900;    0,000;-15,10000
 330,74; -154,400; -128,900;    0,000;-25,50000
 330,75; -140,400; -142,900;    0,000; 2,50000
 330,77;   76,000;  108,300;    0,000;-32,30000
 330,79; -121,200; -127,600;    0,000; 6,40000
 330,81; -148,800; -117,900;    0,000;-30,90000
 330,82;  -32,700;  -62,600;    0,000;29,90000
 330,84; -116,200;  -62,900;    0,000;-53,30000
 330,86; -169,800; -177,300;    0,000; 7,50000
 330,88;  -68,200;  -14,600;    0,000;-53,60000
 330,90; -135,800; -159,400;    0,000;23,60000
 330,91;   53,900;   98,200;    0,000;-44,30000
 330,93;  -29,100;  -31,200;    0,000; 2,10000
 330,95; -155,200; -160,600;    0,000; 5,40000
 330,97;  -40,500;  -56,800;    0,000;16,30000
 330,98; -141,600; -125,000;    0,000;-16,60000
 331,00;  -70,500; -118,000;    0,000;47,50000
 331,02; -265,100; -209,000;    0,000;-56,10000
 331,04; -180,900; -171,400;    0,000;-9,50000
 331,05; -222,900; -225,000;    0,000; 2,10000
 331,07;  -36,700;  -82,400;    0,000;45,70000
 331,09; -147,500; -136,800;    0,000;-10,70000
 331,11;   23,900;   23,500;    0,000; 0,40000
 331,13;  -14,000;   18,300;    0,000;-32,30000
 331,14; -177,000; -187,500;    0,000;10,50000
 331,16;  -78,300;  -34,900;    0,000;-43,40000
 331,18;   -7,300;  -10,900;    0,000; 3,60000
 331,20; -130,500;  -84,900;    0,000;-45,60000
 331,21;   30,800;   37,500;    0,000;-6,70000
 331,23;  -62,700;  -17,000;    0,000;-45,70000
 331,25; -147,100; -177,400;    0,000;30,30000
 331,27;  -62,200;  -65,100;    0,000; 2,90000
 331,28;  -93,700;  -95,300;    0,000; 1,60000
 331,30; -130,200; -107,600;    0,000;-22,60000
 331,32;   20,000;   25,000;    0,000;-5,00000
 331,34;  -80,100;  -54,300;    0,000;-25,80000
 331,35;  -43,700;  -74,000;    0,000;30,30000
 331,37; -191,600; -153,900;    0,000;-37,70000
 331,39;   63,600;   41,400;    0,000;22,20000
 331,41;  -83,300;  -35,100;    0,000;-48,20000
 331,43; -106,200; -111,800;    0,000; 5,60000
 331,44; -254,100; -221,900;    0,000;-32,20000
 331,46;  -48,500;  -79,200;    0,000;30,70000
 331,48; -189,100; -163,300;    0,000;-25,80000
 331,50;   -3,300;  -16,900;    0,000;13,60000
 331,51;  -87,800;  -41,400;    0,000;-46,40000
 331,53; -166,600; -191,500;    0,000;24,90000
 331,55;  113,700;  157,900;    0,000;-44,20000
 331,57;   60,600;   42,400;    0,000;18,20000
 331,58; -115,000;  -49,300;    0,000;-65,70000
 331,60;  -63,200;  -89,400;    0,000;26,20000
 331,62; -106,700;  -66,800;    0,000;-39,90000
 331,64;  -10,100;   -9,900;    0,000;-0,20000
 331,65;  -19,500;  -17,100;    0,000;-2,40000
 331,67;   -2,300;   -9,700;    0,000; 7,40000
 331,69;    9,600;   15,500;    0,000;-5,90000
 331,71;  -21,700;  -73,300;    0,000;51,60000
 331,72;  -49,500;  -42,900;    0,000;-6,60000
 331,74; -141,400;  -83,800;    0,000;-57,60000
 331,76; -176,900; -117,600;    0,000;-59,30000
 331,78;  -22,000;  -41,300;    0,000;19,30000
 331,79;  -41,300;  -70,600;    0,000;29,30000
 331,81; -147,500; -187,700;    0,000;40,20000
 331,83;    1,800;   37,400;    0,000;-35,60000
 331,85;  -64,500;  -70,700;    0,000; 6,20000
 331,86;  -99,000;  -46,800;    0,000;-52,20000
 331,88;   22,700;   -7,600;    0,000;30,30000
 331,90;   70,400;   97,500;    0,000;-27,10000
 331,92;  -27,000;  -24,200;    0,000;-2,80000
 331,94; -200,300; -181,700;    0,000;-18,60000
 331,95;   44,100;   10,800;    0,000;33,30000
 331,97;  -17,500;   12,100;    0,000;-29,60000
 331,99;   81,600;   98,100;    0,000;-16,50000
 332,01; -278,600; -234,900;    0,000;-43,70000
 332,02;  218,400;  250,800;    0,000;-32,40000
 332,04;   -2,000;   14,800;    0,000;-16,80000
 332,06;  159,500;  193,300;    0,000;-33,80000
 332,08;  -77,200;  -85,500;    0,000; 8,30000
 332,09; -172,500; -165,200;    0,000;-7,30000
 332,11;   26,700;   42,700;    0,000;-16,00000
 332,13;  -16,700;  -25,700;    0,000; 9,00000
 332,15; -100,100;  -66,800;    0,000;-33,30000
 332,16;  -37,400;  -72,800;    0,000;35,40000
 332,18; -102,000;  -73,100;    0,000;-28,90000
 332,20; -117,900; -144,500;    0,000;26,60000
 332,22; -155,300; -103,400;    0,000;-51,90000
 332,23;  133,700;  110,500;    0,000;23,20000
 332,25; -147,800;  -99,000;    0,000;-48,80000
 332,27; -108,800; -118,000;    0,000; 9,20000
 332,29; -100,800;  -85,500;    0,000;-15,30000
 332,30;  -29,500;  -58,600;    0,000;29,10000
 332,32; -110,700;  -61,400;    0,000;-49,30000
 332,34;   36,400;    9,100;    0,000;27,30000
 332,36;  -20,000;   31,000;    0,000;-51,00000
 332,37;   64,600;   66,800;    0,000;-2,20000
 332,39;  131,000;  144,000;    0,000;-13,00000
 332,41; -144,000; -200,500;    0,000;56,50000
 332,43;  -11,500;   11,800;    0,000;-23,30000
 332,44;  -84,000;  -93,400;    0,000; 9,40000
 332,46; -143,300; -122,600;    0,000;-20,70000
 332,48;  -32,400;  -19,000;    0,000;-13,40000
 332,50;   63,500;  117,100;    0,000;-53,60000
 332,51;  -42,000;  -49,000;    0,000; 7,00000
 332,53; -248,300; -179,700;    0,000;-68,60000
 332,55;  -57,800;  -73,100;    0,000;15,30000
 332,57;  -45,400;  -22,500;    0,000;-22,90000
 332,58;  -82,100;  -85,100;    0,000; 3,00000
 332,60;   11,400;   40,300;    0,000;-28,90000
 332,62;  -18,400;  -26,000;    0,000; 7,60000
 332,64;  287,200;  288,800;    0,000;-1,60000
 332,65;  -72,000;  -92,400;    0,000;20,40000
 332,67;  -65,400;  -38,100;    0,000;-27,30000
 332,69;   31,800;   21,400;    0,000;10,40000
 332,70;  -76,400;  -54,500;    0,000;-21,90000
 332,72; -120,300; -131,000;    0,000;10,70000
 332,74;   33,400;   63,900;    0,000;-30,50000
 332,76;   39,200;   24,400;    0,000;14,80000
 332,77; -190,100; -147,200;    0,000;-42,90000
 332,79; -141,500; -185,300;    0,000;43,80000
 332,81; -106,600; -109,700;    0,000; 3,10000
 332,83;  -52,500;  -69,200;    0,000;16,70000
 332,84; -167,000; -200,200;    0,000;33,20000
 332,86; -125,000; -150,200;    0,000;25,20000
 332,88; -221,800; -183,400;    0,000;-38,40000
 332,90;  -32,200;  -34,400;    0,000; 2,20000
 332,91; -176,800; -168,200;    0,000;-8,60000
 332,93;  130,000;   92,400;    0,000;37,60000
 332,95; -103,300;  -51,000;    0,000;-52,30000
 332,97;   94,100;   65,000;    0,000;29,10000
 332,98; -248,900; -227,900;    0,000;-21,00000
 333,00;  -58,900;  -69,500;    0,000;10,60000
 333,02;   55,400;   46,600;    0,000; 8,80000
 333,04;  -41,100;  -26,300;    0,000;-14,80000
 333,05; -164,100; -142,800;    0,000;-21,30000
 333,07;  -94,300;  -99,600;    0,000; 5,30000
 333,09;   92,500;  104,000;    0,000;-11,50000
 333,11;  -16,200;  -43,100;    0,000;26,90000
 333,12;    6,300;   24,400;    0,000;-18,10000
 333,14;   25,900;  -39,300;    0,000;65,20000
 333,16; -206,100; -164,500;    0,000;-41,60000
 333,17;  -96,200; -121,400;    0,000;25,20000
 333,19; -207,900; -142,400;    0,000;-65,50000
 333,21;  -60,900;  -62,800;    0,000; 1,90000
 333,23;   74,000;   99,600;    0,000;-25,60000
 333,24;  -83,900; -106,900;    0,000;23,00000
 333,26;  -40,400;  -42,700;    0,000; 2,30000
 333,28;   75,500;   85,000;    0,000;-9,50000
 333,30;  -45,100;   -9,100;    0,000;-36,00000
 333,31; -114,300; -121,000;    0,000; 6,70000
 333,33; -134,800;  -75,300;    0,000;-59,50000
 333,35; -119,000;  -92,800;    0,000;-26,20000
 333,37; -165,200; -143,600;    0,000;-21,60000
 333,38; -204,100; -211,300;    0,000; 7,20000
 333,40; -198,400; -155,300;    0,000;-43,10000
 333,42; -148,700; -149,200;    0,000; 0,50000
 333,44; -121,300;  -87,400;    0,000;-33,90000
 333,45;   -3,000;   13,400;    0,000;-16,40000
 333,47;  132,100;  143,600;    0,000;-11,50000
 333,49;  -50,400;  -44,900;    0,000;-5,50000
 333,50;  -19,300;   21,500;    0,000;-40,80000
 333,52;  -89,700; -116,500;    0,000;26,80000
 333,54; -255,000; -200,100;    0,000;-54,90000
 333,56;  -77,400;  -84,200;    0,000; 6,80000
 333,57;  -62,300;  -54,400;    0,000;-7,90000
 333,59;  -55,500;  -60,300;    0,000; 4,80000
 333,61;  -98,100;  -60,500;    0,000;-37,60000
 333,63; -209,100; -217,500;    0,000; 8,40000
 333,64; -196,400; -184,600;    0,000;-11,80000
 333,66;   55,800;   82,400;    0,000;-26,60000
 333,68;  -22,300;  -12,700;    0,000;-9,60000
 333,70;  -51,200;  -80,100;    0,000;28,90000
 333,71; -193,000; -184,400;    0,000;-8,60000
 333,73; -136,000; -144,900;    0,000; 8,90000
 333,75;  -81,600;  -41,300;    0,000;-40,30000
 333,76;  -32,400;  -41,800;    0,000; 9,40000
 333,78; -271,700; -264,000;    0,000;-7,70000
 333,80;  -83,200; -118,800;    0,000;35,60000
 333,82;  -19,700;   -0,400;    0,000;-19,30000
 333,83;   68,500;   42,100;    0,000;26,40000
 333,85; -104,700;  -86,500;    0,000;-18,20000
 333,87;  -90,600; -107,900;    0,000;17,30000
 333,89; -134,000;  -82,400;    0,000;-51,60000
 333,90;  -64,100;  -80,100;    0,000;16,00000
 333,92;  -97,300;  -33,900;    0,000;-63,40000
 333,94;  -31,200;  -33,100;    0,000; 1,90000
 333,95;  -61,900;  -44,200;    0,000;-17,70000
 333,97;  -92,000;  -92,800;    0,000; 0,80000
 333,99; -196,400; -158,800;    0,000;-37,60000
 334,01;  -10,500;   26,300;    0,000;-36,80000
 334,02; -101,200;  -73,800;    0,000;-27,40000
 334,04;  -65,000;  -55,500;    0,000;-9,50000
 334,06;  -50,700;  -14,900;    0,000;-35,80000
 334,08;  -39,900;  -47,700;    0,000; 7,80000
 334,09;  -12,500;   54,100;    0,000;-66,60000
 334,11; -111,400; -119,200;    0,000; 7,80000
 334,13;  495,700;  529,900;    0,000;-34,20000
 334,14;   15,500;   -0,600;    0,000;16,10000
 334,16; -165,600; -138,800;    0,000;-26,80000
 334,18;  -80,500;  -72,100;    0,000;-8,40000
 334,20;  -36,400;  -26,900;    0,000;-9,50000
 334,21;   27,700;    8,900;    0,000;18,80000
 334,23;  -48,200;  -10,400;    0,000;-37,80000
 334,25;  -46,400;  -74,300;    0,000;27,90000
 334,26; -108,600;  -64,600;    0,000;-44,00000
 334,28; -128,300; -118,800;    0,000;-9,50000
 334,30; -191,800; -165,500;    0,000;-26,30000
 334,32; -122,900; -115,900;    0,000;-7,00000
 334,33; -194,900; -197,600;    0,000; 2,70000
 334,35;  -66,000;  -79,700;    0,000;13,70000
 334,37; -107,500; -101,800;    0,000;-5,70000
 334,39; -181,500; -159,500;    0,000;-22,00000
 334,40; -140,100;  -99,900;    0,000;-40,20000
 334,42;  -19,700;  -15,100;    0,000;-4,60000
 334,44; -192,100; -164,900;    0,000;-27,20000
 334,45;   10,600;   12,100;    0,000;-1,50000
 334,47; -129,600; -139,500;    0,000; 9,90000
 334,49;   11,000;   11,500;    0,000;-0,50000
 334,51;   36,500;   34,500;    0,000; 2,00000
 334,52;  166,300;  170,500;    0,000;-4,20000
 334,54; -162,700; -139,700;    0,000;-23,00000
 334,56;   94,500;   93,600;    0,000; 0,90000
 334,57;   46,600;   50,600;    0,000;-4,00000
 334,59;  -35,200;  -67,300;    0,000;32,10000
 334,61; -219,800; -217,600;    0,000;-2,20000
 334,63;  -88,900;  -88,400;    0,000;-0,50000
 334,64;   35,400;   68,800;    0,000;-33,40000
 334,66;    0,200;  -13,600;    0,000;13,80000
 334,68;  -64,300;  -60,100;    0,000;-4,20000
 334,69; -203,600; -223,300;    0,000;19,70000
 334,71;   -4,900;   -9,100;    0,000; 4,20000
 334,73; -166,500; -194,000;    0,000;27,50000
 334,75; -119,300;  -73,400;    0,000;-45,90000
 334,76;  -98,300;  -96,300;    0,000;-2,00000
 334,78;  247,200;  286,100;    0,000;-38,90000
 334,80; -112,100; -110,300;    0,000;-1,80000
 334,81;  137,700;  157,900;    0,000;-20,20000
 334,83;   -8,600;  -41,200;    0,000;32,60000
 334,85;  -98,400;  -78,900;    0,000;-19,50000
 334,87; -134,200; -179,800;    0,000;45,60000
 334,88;  -51,600;  -42,300;    0,000;-9,30000
 334,90;  -92,800;  -85,400;    0,000;-7,40000
 334,92; -188,000; -141,900;    0,000;-46,10000
 334,93;   47,900;   47,500;    0,000; 0,40000
 334,95; -101,000;  -72,800;    0,000;-28,20000
 334,97;  -70,200;  -75,800;    0,000; 5,60000
 334,99; -128,800;  -72,300;    0,000;-56,50000
 335,00;   52,600;   25,000;    0,000;27,60000
 335,02; -161,900; -152,800;    0,000;-9,10000
 335,04;   64,100;   45,000;    0,000;19,10000
 335,05; -113,700;  -78,800;    0,000;-34,90000
 335,07;   -0,900;    6,900;    0,000;-7,80000
 335,09; -126,600; -126,600;    0,000; 0,00000
 335,11; -225,700; -239,100;    0,000;13,40000
 335,12; -150,200; -116,800;    0,000;-33,40000
 335,14;  -44,100;  -33,600;    0,000;-10,50000
 335,16;  -81,400;  -66,400;    0,000;-15,00000
 335,17;   47,100;   35,500;    0,000;11,60000
 335,19;  -99,900;  -94,100;    0,000;-5,80000
 335,21;  187,700;  148,300;    0,000;39,40000
 335,23;  -71,000;  -28,700;    0,000;-42,30000
 335,24;  -92,600;  -98,900;    0,000; 6,30000
 335,26;   37,300;   70,800;    0,000;-33,50000
 335,28;   98,900;  113,700;    0,000;-14,80000
 335,29;  148,300;  171,000;    0,000;-22,70000
 335,31; -185,200; -199,000;    0,000;13,80000
 335,33; -113,100; -107,300;    0,000;-5,80000
 335,34;  -64,700;  -62,700;    0,000;-2,00000
 335,36; -115,800;  -98,300;    0,000;-17,50000
 335,38; -108,500; -107,200;    0,000;-1,30000
 335,40; -157,000; -165,700;    0,000; 8,70000
 335,41;   40,000;   41,700;    0,000;-1,70000
 335,43;  -41,400;   -6,300;    0,000;-35,10000
 335,45; -122,100; -133,900;    0,000;11,80000
 335,46;    7,600;   25,500;    0,000;-17,90000
 335,48; -181,900; -162,300;    0,000;-19,60000
 335,50;  -64,400;  -23,600;    0,000;-40,80000
 335,52;  114,400;   99,200;    0,000;15,20000
 335,53;  -80,800;  -65,800;    0,000;-15,00000
 335,55;   60,000;   42,700;    0,000;17,30000
 335,57;   22,500;   23,800;    0,000;-1,30000
 335,58;  -15,400;   -0,300;    0,000;-15,10000
 335,60; -104,200;  -26,700;    0,000;-77,50000
 335,62;    6,400;   13,600;    0,000;-7,20000
 335,63;   40,700;   73,600;    0,000;-32,90000
 335,65;    1,800;   -1,200;    0,000; 3,00000
 335,67; -181,400; -135,000;    0,000;-46,40000
 335,69; -101,200; -103,600;    0,000; 2,40000
 335,70; -140,500;  -93,500;    0,000;-47,00000
 335,72;  -29,700;  -52,100;    0,000;22,40000
 335,74; -163,300; -163,400;    0,000; 0,10000
 335,75;   76,900;   52,100;    0,000;24,80000
 335,77; -201,600; -162,100;    0,000;-39,50000
 335,79;   -2,700;    2,000;    0,000;-4,70000
 335,80; -169,000; -128,800;    0,000;-40,20000
 335,82;  116,600;  108,800;    0,000; 7,80000
 335,84;   20,500;   47,100;    0,000;-26,60000
 335,86;  -20,800;   -0,400;    0,000;-20,40000
 335,87; -147,800; -122,800;    0,000;-25,00000
 335,89;   98,100;   97,300;    0,000; 0,80000
 335,91;   -5,800;   -7,200;    0,000; 1,40000
 335,92;  -65,900; -116,100;    0,000;50,20000
 335,94; -121,600;  -94,900;    0,000;-26,70000
 335,96;  -72,500;  -66,300;    0,000;-6,20000
 335,97;  -13,300;   20,500;    0,000;-33,80000
 335,99;  -59,200;  -60,000;    0,000; 0,80000
 336,01; -186,200; -133,800;    0,000;-52,40000
 336,03;  -85,300; -103,100;    0,000;17,80000
 336,04;  -56,500;  -29,900;    0,000;-26,60000
 336,06;   45,400;    8,000;    0,000;37,40000
 336,08; -141,600; -117,400;    0,000;-24,20000
 336,09;   87,800;   59,500;    0,000;28,30000
 336,11;  -33,000;   14,700;    0,000;-47,70000
 336,13;   57,500;   59,600;    0,000;-2,10000
 336,14; -104,400;  -34,700;    0,000;-69,70000
 336,16;   27,900;   41,600;    0,000;-13,70000
 336,18;  -45,400;    8,200;    0,000;-53,60000
 336,19; -161,500; -186,700;    0,000;25,20000
 336,21;  -24,700;   11,200;    0,000;-35,90000
 336,23; -204,700; -193,600;    0,000;-11,10000
 336,25; -102,500;  -61,500;    0,000;-41,00000
 336,26; -110,300;  -77,000;    0,000;-33,30000
 336,28; -154,700; -118,900;    0,000;-35,80000
 336,30;   90,400;   84,300;    0,000; 6,10000
 336,31; -163,800; -159,300;    0,000;-4,50000
 336,33;  -34,200;    0,500;    0,000;-34,70000
 336,35; -100,900;  -48,500;    0,000;-52,40000
 336,36;   37,500;    3,300;    0,000;34,20000
 336,38;  -30,200;    4,600;    0,000;-34,80000
 336,40; -213,900; -201,800;    0,000;-12,10000
 336,41; -124,200;  -94,800;    0,000;-29,40000
 336,43;   42,500;   63,000;    0,000;-20,50000
 336,45;  -72,400;  -76,200;    0,000; 3,80000
 336,47;   27,600;    9,600;    0,000;18,00000
 336,48;  -23,900;    0,000;    0,000;-23,90000
 336,50;  -60,200;  -41,400;    0,000;-18,80000
 336,52;   34,500;   61,500;    0,000;-27,00000
 336,53;  -82,000;  -99,500;    0,000;17,50000
 336,55; -178,200; -147,700;    0,000;-30,50000
 336,57; -176,000; -186,200;    0,000;10,20000
 336,58;  -58,500;  -13,700;    0,000;-44,80000
 336,60;   -7,600;  -52,600;    0,000;45,00000
 336,62; -215,300; -166,300;    0,000;-49,00000
 336,63; -171,700; -188,400;    0,000;16,70000
 336,65;  -31,300;   16,000;    0,000;-47,30000
 336,67;  -90,600; -116,800;    0,000;26,20000
 336,68; -209,200; -170,000;    0,000;-39,20000
 336,70;   -1,600;  -13,200;    0,000;11,60000
 336,72;  -13,400;    0,500;    0,000;-13,90000
 336,74;  -11,000;  -30,200;    0,000;19,20000
 336,75; -158,700;  -94,800;    0,000;-63,90000
 336,77;  -18,900;  -31,700;    0,000;12,80000
 336,79; -121,400;  -95,400;    0,000;-26,00000
 336,80; -127,000; -135,400;    0,000; 8,40000
 336,82; -166,800; -131,300;    0,000;-35,50000
 336,84;   45,900;   54,600;    0,000;-8,70000
 336,85;  -57,500;  -36,700;    0,000;-20,80000
 336,87;  195,500;  178,800;    0,000;16,70000
 336,89;  -46,200;  -46,400;    0,000; 0,20000
 336,90;   95,200;   86,100;    0,000; 9,10000
 336,92;  -34,700;  -28,200;    0,000;-6,50000
 336,94; -131,400; -158,300;    0,000;26,90000
 336,95; -311,200; -242,100;    0,000;-69,10000
 336,97;   37,700;   56,100;    0,000;-18,40000
 336,99; -107,400;  -46,400;    0,000;-61,00000
 337,00; -135,500; -148,900;    0,000;13,40000
 337,02; -144,400; -130,900;    0,000;-13,50000
 337,04; -103,200;  -96,900;    0,000;-6,30000
 337,06;  246,400;  291,700;    0,000;-45,30000
 337,07; -217,000; -212,000;    0,000;-5,00000
 337,09;  -55,100;  -53,000;    0,000;-2,10000
 337,11;   33,500;   50,800;    0,000;-17,30000
 337,12; -273,400; -241,700;    0,000;-31,70000
 337,14;  -23,000;  -36,800;    0,000;13,80000
 337,16;   57,500;   85,100;    0,000;-27,60000
 337,17;  -92,000; -108,400;    0,000;16,40000
 337,19;  -89,800;  -79,500;    0,000;-10,30000
 337,21;   -1,600;    3,600;    0,000;-5,20000
 337,22;  -62,600;  -48,800;    0,000;-13,80000
 337,24;  -58,800;  -57,700;    0,000;-1,10000
 337,26;  -38,000;   -8,500;    0,000;-29,50000
 337,27;  -37,600;  -55,200;    0,000;17,60000
 337,29;  -33,500;   -7,100;    0,000;-26,40000
 337,31;  148,700;  128,300;    0,000;20,40000
 337,32;  -47,100;  -35,100;    0,000;-12,00000
 337,34;   13,300;  -44,100;    0,000;57,40000
 337,36;  -91,900;  -77,200;    0,000;-14,70000
 337,37;  111,800;   67,200;    0,000;44,60000
 337,39;  118,200;  159,500;    0,000;-41,30000
 337,41;   58,900;   44,900;    0,000;14,00000
 337,42; -320,800; -304,500;    0,000;-16,30000
 337,44;  -24,500;  -73,700;    0,000;49,20000
 337,46;  -14,000;   -4,400;    0,000;-9,60000
 337,47;   86,400;  105,700;    0,000;-19,30000
 337,49;   11,700;   50,800;    0,000;-39,10000
 337,51;  -45,400;  -62,000;    0,000;16,60000
 337,53;  -56,700;  -36,400;    0,000;-20,30000
 337,54;  -19,700;  -27,900;    0,000; 8,20000
 337,56; -147,100; -127,800;    0,000;-19,30000
 337,58;  -47,600;  -76,900;    0,000;29,30000
 337,59;  -44,500;  -33,100;    0,000;-11,40000
 337,61;  -85,900;  -99,200;    0,000;13,30000
 337,63;  -79,900;  -26,600;    0,000;-53,30000
 337,64;  -41,500;  -82,800;    0,000;41,30000
 337,66;  -52,400;  -19,100;    0,000;-33,30000
 337,68; -201,000; -200,800;    0,000;-0,20000
 337,69; -127,000;  -85,800;    0,000;-41,20000
 337,71;  -61,700;  -92,800;    0,000;31,10000
 337,73;  -48,500;  -11,800;    0,000;-36,70000
 337,74; -134,800; -123,100;    0,000;-11,70000
 337,76;  -29,400;   -6,900;    0,000;-22,50000
 337,78;   98,900;   81,100;    0,000;17,80000
 337,79; -169,700; -117,600;    0,000;-52,10000
 337,81;  340,600;  312,600;    0,000;28,00000
 337,83;  -32,800;   -2,800;    0,000;-30,00000
 337,84;  -62,900;  -78,400;    0,000;15,50000
 337,86;   65,500;   94,600;    0,000;-29,10000
 337,88;  -30,700;  -39,600;    0,000; 8,90000
 337,89;   86,800;  107,400;    0,000;-20,60000
 337,91;  104,100;  100,500;    0,000; 3,60000
 337,93; -117,000;  -85,300;    0,000;-31,70000
 337,94;   72,000;   42,300;    0,000;29,70000
 337,96;  -76,500;  -57,700;    0,000;-18,80000
 337,98;  -44,900;  -52,000;    0,000; 7,10000
 337,99; -261,600; -236,800;    0,000;-24,80000
 338,01;   70,500;   33,500;    0,000;37,00000
 338,03; -128,200;  -74,600;    0,000;-53,60000
 338,04; -190,200; -200,800;    0,000;10,60000
 338,06;    7,200;   43,300;    0,000;-36,10000
 338,08;  -92,600;  -67,700;    0,000;-24,90000
 338,09; -187,800; -109,900;    0,000;-77,90000
 338,11;  -79,300;  -68,900;    0,000;-10,40000
 338,13;   66,600;  112,000;    0,000;-45,40000
 338,14;   62,300;   45,100;    0,000;17,20000
 338,16;   20,400;   49,600;    0,000;-29,20000
 338,18;  -26,300;  -23,700;    0,000;-2,60000
 338,19;  -45,000;  -16,600;    0,000;-28,40000
 338,21; -210,300; -238,200;    0,000;27,90000
 338,23;  -83,600;  -36,900;    0,000;-46,70000
 338,24; -123,600; -156,000;    0,000;32,40000
 338,26;  -62,800;  -19,100;    0,000;-43,70000
 338,28;   -6,900;  -16,700;    0,000; 9,80000
 338,29; -297,600; -243,400;    0,000;-54,20000
 338,31;  -25,900;  -33,300;    0,000; 7,40000
 338,33;  -12,500;   38,100;    0,000;-50,60000
 338,34;  -64,400;  -80,500;    0,000;16,10000
 338,36;  -30,900;   17,400;    0,000;-48,30000
 338,38;  -36,900;  -35,000;    0,000;-1,90000
 338,39; -296,000; -256,300;    0,000;-39,70000
 338,41;  213,700;  172,400;    0,000;41,30000
 338,43; -238,400; -211,700;    0,000;-26,70000
 338,44;  -46,900;  -67,100;    0,000;20,20000
 338,46;  -52,700;  -30,800;    0,000;-21,90000
 338,48; -311,800; -320,200;    0,000; 8,40000
 338,49; -128,100;  -89,000;    0,000;-39,10000
 338,51; -124,400; -121,000;    0,000;-3,40000
 338,53;   74,400;   99,800;    0,000;-25,40000
 338,54; -216,800; -207,900;    0,000;-8,90000
 338,56; -126,000; -112,000;    0,000;-14,00000
 338,57;   47,000;   -1,400;    0,000;48,40000
 338,59;   15,200;   60,500;    0,000;-45,30000
 338,61;  -67,300; -116,600;    0,000;49,30000
 338,62; -174,800; -149,000;    0,000;-25,80000
 338,64; -132,800; -136,000;    0,000; 3,20000
 338,66;  -33,100;  -27,500;    0,000;-5,60000
 338,67;  100,000;   81,000;    0,000;19,00000
 338,69;   52,100;   75,900;    0,000;-23,80000
 338,71; -156,100; -172,700;    0,000;16,60000
 338,72; -119,100; -124,400;    0,000; 5,30000
 338,74;  132,700;   87,900;    0,000;44,80000
 338,76;  -21,100;   -2,300;    0,000;-18,80000
 338,77;  -70,900; -101,600;    0,000;30,70000
 338,79;  -49,400;   -6,000;    0,000;-43,40000
 338,81;  -72,200;  -96,600;    0,000;24,40000
 338,82;  -98,300;  -65,100;    0,000;-33,20000
 338,84;  114,700;  114,900;    0,000;-0,20000
 338,86;  -64,100;  -45,600;    0,000;-18,50000
 338,87;  -89,200; -120,600;    0,000;31,40000
 338,89; -142,500; -114,700;    0,000;-27,80000
 338,91;  -94,400;  -77,900;    0,000;-16,50000
 338,92;  -42,500;   -8,900;    0,000;-33,60000
 338,94;  -54,500;  -62,600;    0,000; 8,10000
 338,96;  -96,300;  -89,500;    0,000;-6,80000
 338,97;   12,200;  -18,800;    0,000;31,00000
 338,99;   85,500;  135,300;    0,000;-49,80000
 339,01;  -29,100;  -43,900;    0,000;14,80000
 339,02; -107,100;  -73,600;    0,000;-33,50000
 339,04;   94,300;   87,800;    0,000; 6,50000
 339,05;  -79,800;  -58,800;    0,000;-21,00000
 339,07;  -13,700;  -57,800;    0,000;44,10000
 339,09;    8,800;   17,300;    0,000;-8,50000
 339,10; -147,900; -153,400;    0,000; 5,50000
 339,12; -215,500; -199,300;    0,000;-16,20000
 339,14;   65,500;   36,200;    0,000;29,30000
 339,15;  -19,400;   29,400;    0,000;-48,80000
 339,17; -196,200; -219,900;    0,000;23,70000
 339,19;  -13,700;  -21,400;    0,000; 7,70000
 339,20; -137,600; -156,700;    0,000;19,10000
 339,22; -246,600; -231,300;    0,000;-15,30000
 339,24; -103,800; -114,300;    0,000;10,50000
 339,25;  100,500;  160,500;    0,000;-60,00000
 339,27;   71,800;   58,900;    0,000;12,90000
 339,29; -143,600;  -95,800;    0,000;-47,80000
 339,30; -152,900; -186,500;    0,000;33,60000
 339,32;  -71,200;  -67,500;    0,000;-3,70000
 339,33;  187,000;  167,300;    0,000;19,70000
 339,35;  -48,300;  -18,400;    0,000;-29,90000
 339,37;   -9,700;  -16,000;    0,000; 6,30000
 339,38;  -34,000;   -9,300;    0,000;-24,70000
 339,40;  -16,100;  -54,700;    0,000;38,60000
 339,42;  -62,000;  -29,800;    0,000;-32,20000
 339,43; -113,900; -116,800;    0,000; 2,90000
 339,45;   76,800;  114,600;    0,000;-37,80000
 339,47;  -26,000;  -71,000;    0,000;45,00000
 339,48; -197,300; -172,400;    0,000;-24,90000
 339,50;    2,600;   13,100;    0,000;-10,50000
 339,52; -167,800; -170,700;    0,000; 2,90000
 339,53; -102,000;  -86,600;    0,000;-15,40000
 339,55; -100,900;  -62,100;    0,000;-38,80000
 339,57;  -66,300;  -93,500;    0,000;27,20000
 339,58; -216,900; -195,700;    0,000;-21,20000
 339,60;   10,200;    4,900;    0,000; 5,30000
 339,61;  627,800;  647,300;    0,000;-19,50000
 339,63; -106,300; -122,400;    0,000;16,10000
 339,65; -189,900; -134,200;    0,000;-55,70000
 339,66;  -10,100;   -5,000;    0,000;-5,10000
 339,68;  -56,300;  -33,700;    0,000;-22,60000
 339,70;  -53,700;  -74,100;    0,000;20,40000
 339,71;  -45,700;   -7,400;    0,000;-38,30000
 339,73; -174,600; -216,300;    0,000;41,70000
 339,75; -210,300; -148,700;    0,000;-61,60000
 339,76;  -57,700;  -92,700;    0,000;35,00000
 339,78;  -81,400;  -66,700;    0,000;-14,70000
 339,79;  177,800;  158,500;    0,000;19,30000
 339,81; -219,000; -178,800;    0,000;-40,20000
 339,83;    3,300;  -36,800;    0,000;40,10000
 339,84;  -53,700;  -25,300;    0,000;-28,40000
 339,86;  -97,300;  -95,300;    0,000;-2,00000
 339,88; -229,300; -183,600;    0,000;-45,70000
 339,89; -136,000; -130,600;    0,000;-5,40000
 339,91;  -43,400;  -35,100;    0,000;-8,30000
 339,93;  294,600;  273,200;    0,000;21,40000
 339,94;  -73,800;  -55,800;    0,000;-18,00000
 339,96; -117,000; -104,800;    0,000;-12,20000
 339,98;   39,000;  131,300;    0,000;-92,30000
 339,99;    8,900;  -13,900;    0,000;22,80000
 340,01; -152,800; -117,200;    0,000;-35,60000
 340,02;  -75,800; -107,500;    0,000;31,70000
 340,04; -206,500; -215,000;    0,000; 8,50000
 340,06;   -5,900;  -42,900;    0,000;37,00000
 340,07; -179,700; -149,700;    0,000;-30,00000
 340,09; -116,000;  -81,400;    0,000;-34,60000
 340,11; -156,700; -161,100;    0,000; 4,40000
 340,12;  -69,900;  -86,900;    0,000;17,00000
 340,14;  -73,300;  -21,300;    0,000;-52,00000
 340,15;   38,600;   -1,200;    0,000;39,80000
 340,17; -196,200; -177,000;    0,000;-19,20000
 340,19;  -77,800;  -86,300;    0,000; 8,50000
 340,20; -108,600;  -82,700;    0,000;-25,90000
 340,22;   -7,000;  -15,900;    0,000; 8,90000
 340,24; -113,300; -108,700;    0,000;-4,60000
 340,25;  -35,800;  -26,900;    0,000;-8,90000
 340,27; -111,200;  -70,300;    0,000;-40,90000
 340,29;  105,600;   68,600;    0,000;37,00000
 340,30; -251,300; -229,100;    0,000;-22,20000
 340,32;  -96,500; -122,500;    0,000;26,00000
 340,33; -134,900;  -91,600;    0,000;-43,30000
 340,35; -184,200; -199,700;    0,000;15,50000
 340,37;  103,700;  140,300;    0,000;-36,60000
 340,38;  -72,700;  -55,200;    0,000;-17,50000
 340,40;  -21,500;   28,800;    0,000;-50,30000
 340,42;  118,600;   99,300;    0,000;19,30000
 340,43;    7,200;   16,500;    0,000;-9,30000
 340,45; -103,600; -112,400;    0,000; 8,80000
 340,46; -110,100;  -87,700;    0,000;-22,40000
 340,48; -126,500; -136,000;    0,000; 9,50000
 340,50;  -76,000;  -60,000;    0,000;-16,00000
 340,51;  -52,200;  -85,900;    0,000;33,70000
 340,53; -197,200; -166,000;    0,000;-31,20000
 340,55; -146,200; -148,200;    0,000; 2,00000
 340,56;  -63,100;  -10,600;    0,000;-52,50000
 340,58;   41,100;   -0,900;    0,000;42,00000
 340,60; -167,800; -143,300;    0,000;-24,50000
 340,61;  -94,900; -125,200;    0,000;30,30000
 340,63; -151,500;  -88,900;    0,000;-62,60000
 340,64;  107,800;   90,500;    0,000;17,30000
 340,66; -112,000;  -95,300;    0,000;-16,70000
 340,68;  -40,400;  -42,200;    0,000; 1,80000
 340,69;   66,600;   89,700;    0,000;-23,10000
 340,71;   36,000;    1,200;    0,000;34,80000
 340,73; -134,300; -117,100;    0,000;-17,20000
 340,74;  -34,100;  -53,200;    0,000;19,10000
 340,76; -124,000;  -91,600;    0,000;-32,40000
 340,77;  -72,400;  -90,200;    0,000;17,80000
 340,79;  -54,600;  -13,200;    0,000;-41,40000
 340,81;  -67,400;  -69,000;    0,000; 1,60000
 340,82;   48,600;   97,300;    0,000;-48,70000
 340,84;    6,800;  -32,300;    0,000;39,10000
 340,86; -138,700; -134,300;    0,000;-4,40000
 340,87;   53,600;   33,800;    0,000;19,80000
 340,89; -146,600; -104,700;    0,000;-41,90000
 340,90;  -81,500;  -42,200;    0,000;-39,30000
 340,92; -112,200;  -71,000;    0,000;-41,20000
 340,94; -121,600; -111,700;    0,000;-9,90000
 340,95; -109,900;  -65,800;    0,000;-44,10000
 340,97; -197,700; -222,000;    0,000;24,30000
 340,98;   -2,100;   24,900;    0,000;-27,00000
 341,00; -105,300; -145,800;    0,000;40,50000
 341,02;  -42,600;   -9,200;    0,000;-33,40000
 341,03; -112,800; -105,100;    0,000;-7,70000
 341,05; -231,700; -192,100;    0,000;-39,60000
 341,07;   -2,300;  -28,100;    0,000;25,80000
 341,08; -131,600; -123,800;    0,000;-7,80000
 341,10;  -20,800;   -7,900;    0,000;-12,90000
 341,11; -157,500; -163,300;    0,000; 5,80000
 341,13;  -69,800;  -60,300;    0,000;-9,50000
 341,15;  -49,000;  -33,500;    0,000;-15,50000
 341,16;   63,700;   31,600;    0,000;32,10000
 341,18;  -99,100;  -53,600;    0,000;-45,50000
 341,20;  -98,100;  -97,900;    0,000;-0,20000
 341,21; -139,400;  -79,600;    0,000;-59,80000
 341,23; -100,500;  -96,100;    0,000;-4,40000
 341,24; -276,500; -265,300;    0,000;-11,20000
 341,26;  -68,300;  -52,300;    0,000;-16,00000
 341,28;  -21,500;  -38,700;    0,000;17,20000
 341,29;  -92,900; -117,600;    0,000;24,70000
 341,31; -129,900;  -74,100;    0,000;-55,80000
 341,32; -112,600;  -86,200;    0,000;-26,40000
 341,34; -105,000;  -85,500;    0,000;-19,50000
 341,36;  -60,100;  -97,600;    0,000;37,50000
 341,37; -216,800; -159,700;    0,000;-57,10000
 341,39; -170,600; -179,800;    0,000; 9,20000
 341,41; -205,500; -134,800;    0,000;-70,70000
 341,42; -201,600; -219,500;    0,000;17,90000
 341,44;   78,500;  115,200;    0,000;-36,70000
 341,45;  -67,000;  -84,400;    0,000;17,40000
 341,47; -207,100; -201,300;    0,000;-5,80000
 341,49;  -26,900;  -55,900;    0,000;29,00000
 341,50; -213,300; -132,900;    0,000;-80,40000
 341,52;  -50,500;  -51,100;    0,000; 0,60000
 341,53; -131,400;  -98,000;    0,000;-33,40000
 341,55;  251,800;  229,200;    0,000;22,60000
 341,57;  -33,800;  -24,300;    0,000;-9,50000
 341,58;  -98,700;  -98,300;    0,000;-0,40000
 341,60; -229,100; -179,500;    0,000;-49,60000
 341,61;  -90,800;  -92,500;    0,000; 1,70000
 341,63;  -57,100;   20,900;    0,000;-78,00000
 341,65;  -12,900;  -63,900;    0,000;51,00000
 341,66;  -58,100;  -57,700;    0,000;-0,40000
 341,68;  -80,600;  -81,300;    0,000; 0,70000
 341,70;  -56,600;  -56,000;    0,000;-0,60000
 341,71;  -62,500;  -79,100;    0,000;16,60000
 341,73;  -80,900;  -50,600;    0,000;-30,30000
 341,74;  -68,900;  -77,900;    0,000; 9,00000
 341,76;   -9,700;    9,900;    0,000;-19,60000
 341,78;  101,100;   89,400;    0,000;11,70000
 341,79; -175,400; -161,300;    0,000;-14,10000
 341,81;   94,200;   61,400;    0,000;32,80000
 341,82;   12,000;    8,100;    0,000; 3,90000
 341,84; -112,700; -142,500;    0,000;29,80000
 341,86; -264,600; -238,000;    0,000;-26,60000
 341,87;  102,500;  114,800;    0,000;-12,30000
 341,89;  -14,800;   15,800;    0,000;-30,60000
 341,90;   36,600;   -8,700;    0,000;45,30000
 341,92;  -15,000;   26,900;    0,000;-41,90000
 341,94;  -59,000;  -68,100;    0,000; 9,10000
 341,95; -125,200;  -96,000;    0,000;-29,20000
 341,97;  -60,300;  -58,800;    0,000;-1,50000
 341,98; -148,100; -120,100;    0,000;-28,00000
 342,00;   66,700;   44,600;    0,000;22,10000
 342,02;   16,600;   58,100;    0,000;-41,50000
 342,03;   26,800;   22,600;    0,000; 4,20000
 342,05; -122,600;  -72,400;    0,000;-50,20000
 342,06; -146,100; -147,000;    0,000; 0,90000
 342,08;  -43,800;   -4,000;    0,000;-39,80000
 342,10;  -15,800;  -57,700;    0,000;41,90000
 342,11;  -53,500;  -49,500;    0,000;-4,00000
 342,13; -173,900; -195,200;    0,000;21,30000
 342,15;  -77,000;  -62,100;    0,000;-14,90000
 342,16; -116,200; -140,100;    0,000;23,90000
 342,18;  -80,400;  -51,600;    0,000;-28,80000
 342,19;  -33,200;  -19,600;    0,000;-13,60000
 342,21;   48,100;   86,300;    0,000;-38,20000
 342,23;  -95,400; -120,700;    0,000;25,30000
 342,24;  -25,800;   27,600;    0,000;-53,40000
 342,26; -106,100;  -61,300;    0,000;-44,80000
 342,27;   -3,600;   35,600;    0,000;-39,20000
 342,29; -228,500; -236,900;    0,000; 8,40000
 342,31;   83,500;   93,200;    0,000;-9,70000
 342,32;  -18,600;  -54,500;    0,000;35,90000
 342,34; -110,800;  -79,500;    0,000;-31,30000
 342,35; -149,000; -162,600;    0,000;13,60000
 342,37; -174,600; -158,600;    0,000;-16,00000
 342,39;    3,600;   -4,700;    0,000; 8,30000
 342,40; -246,400; -236,100;    0,000;-10,30000
 342,42;   89,600;   91,300;    0,000;-1,70000
 342,43;  126,900;  155,100;    0,000;-28,20000
 342,45;   30,100;   32,700;    0,000;-2,60000
 342,46;   95,900;  131,800;    0,000;-35,90000
 342,48; -217,200; -219,200;    0,000; 2,00000
 342,50;  121,700;  125,900;    0,000;-4,20000
 342,51;  -87,800;  -83,400;    0,000;-4,40000
 342,53; -174,600; -137,100;    0,000;-37,50000
 342,54; -135,500; -122,500;    0,000;-13,00000
 342,56;  -59,800;  -21,700;    0,000;-38,10000
 342,58; -101,100; -121,700;    0,000;20,60000
 342,59;  -97,100;  -57,100;    0,000;-40,00000
 342,61;    2,700;  -32,400;    0,000;35,10000
 342,62; -156,100; -108,200;    0,000;-47,90000
 342,64; -131,800; -145,500;    0,000;13,70000
 342,66; -171,100; -120,000;    0,000;-51,10000
 342,67; -100,900; -103,900;    0,000; 3,00000
 342,69; -128,800;  -89,700;    0,000;-39,10000
 342,70;  150,400;  137,600;    0,000;12,80000
 342,72;  -98,300;  -90,200;    0,000;-8,10000
 342,74;  -94,100; -121,800;    0,000;27,70000
 342,75;    7,500;   17,400;    0,000;-9,90000
 342,77;   38,300;   27,700;    0,000;10,60000
 342,78; -172,400; -116,500;    0,000;-55,90000
 342,80;  -99,200; -113,800;    0,000;14,60000
 342,82; -160,000; -125,000;    0,000;-35,00000
 342,83;  -86,000; -130,500;    0,000;44,50000
 342,85;  -98,500;  -66,100;    0,000;-32,40000
 342,86;   96,800;   78,000;    0,000;18,80000
 342,88;  -18,500;   21,600;    0,000;-40,10000
 342,90;  -14,900;  -24,000;    0,000; 9,10000
 342,91; -147,100; -119,600;    0,000;-27,50000
 342,93;   34,800;   -3,000;    0,000;37,80000
 342,94; -130,300;  -90,900;    0,000;-39,40000
 342,96; -123,600; -154,500;    0,000;30,90000
 342,97; -166,500; -150,200;    0,000;-16,30000
 342,99;   87,000;   52,000;    0,000;35,00000
 343,01;  -66,700;  -67,900;    0,000; 1,20000
 343,02;  -53,900;  -93,700;    0,000;39,80000
 343,04;  -55,900;    5,100;    0,000;-61,00000
 343,05;   13,800;   20,200;    0,000;-6,40000
 343,07;  -87,500;  -65,200;    0,000;-22,30000
 343,09; -129,000; -160,100;    0,000;31,10000
 343,10; -173,600; -135,700;    0,000;-37,90000
 343,12;  -38,500;  -53,100;    0,000;14,60000
 343,13;   22,800;   70,600;    0,000;-47,80000
 343,15; -101,600; -146,200;    0,000;44,60000
 343,17;    0,400;   30,200;    0,000;-29,80000
 343,18;  -42,300;  -38,600;    0,000;-3,70000
 343,20; -117,600; -112,000;    0,000;-5,60000
 343,21; -108,900; -129,800;    0,000;20,90000
 343,23;   -2,000;   17,800;    0,000;-19,80000
 343,24;   -6,500;  -10,700;    0,000; 4,20000
 343,26; -251,400; -195,700;    0,000;-55,70000
 343,28;   -5,200;  -24,600;    0,000;19,40000
 343,29; -112,100;  -68,400;    0,000;-43,70000
 343,31;   67,200;   83,500;    0,000;-16,30000
 343,32;  -66,000;  -41,100;    0,000;-24,90000
 343,34; -139,800; -156,500;    0,000;16,70000
 343,36; -134,200;  -98,300;    0,000;-35,90000
 343,37; -178,100; -200,700;    0,000;22,60000
 343,39;  -71,400;  -49,000;    0,000;-22,40000
 343,40;   65,000;   23,100;    0,000;41,90000
 343,42;  -74,100;  -31,200;    0,000;-42,90000
 343,43; -177,400; -182,400;    0,000; 5,00000
 343,45;  -41,300;   22,800;    0,000;-64,10000
 343,47;  -99,100; -106,700;    0,000; 7,60000
 343,48;  -59,100;  -19,200;    0,000;-39,90000
 343,50;   -5,500;  -15,300;    0,000; 9,80000
 343,51;  -41,000;  -30,000;    0,000;-11,00000
 343,53; -213,400; -240,400;    0,000;27,00000
 343,54;  -59,500;  -16,300;    0,000;-43,20000
 343,56;  -17,800;   -9,200;    0,000;-8,60000
 343,58;  -82,800;  -77,500;    0,000;-5,30000
 343,59; -103,600;  -95,900;    0,000;-7,70000
 343,61; -170,000; -113,600;    0,000;-56,40000
 343,62;  -10,500;  -48,000;    0,000;37,50000
 343,64;  -25,900;    4,800;    0,000;-30,70000
 343,66;  -85,700;  -68,800;    0,000;-16,90000
 343,67;  -65,100;  -19,400;    0,000;-45,70000
 343,69;  -30,800;  -25,500;    0,000;-5,30000
 343,70;   25,500;   37,500;    0,000;-12,00000
 343,72;    5,400;   23,400;    0,000;-18,00000
 343,73; -119,300;  -73,800;    0,000;-45,50000
 343,75;   59,900;   62,600;    0,000;-2,70000
 343,77;  -88,500;  -75,200;    0,000;-13,30000
 343,78; -140,900; -193,600;    0,000;52,70000
 343,80; -203,400; -161,200;    0,000;-42,20000
 343,81;  -98,300; -104,500;    0,000; 6,20000
 343,83;   12,200;   37,500;    0,000;-25,30000
 343,84;   37,700;   34,900;    0,000; 2,80000
 343,86;   41,200;   56,800;    0,000;-15,60000
 343,88;   77,200;   43,600;    0,000;33,60000
 343,89; -122,900;  -98,900;    0,000;-24,00000
 343,91;   45,500;   34,600;    0,000;10,90000
 343,92; -103,300; -112,400;    0,000; 9,10000
 343,94;   18,600;   -6,200;    0,000;24,80000
 343,95;   32,100;   61,300;    0,000;-29,20000
 343,97; -183,600; -208,300;    0,000;24,70000
 343,99; -246,400; -211,200;    0,000;-35,20000
 344,00;  -50,200;  -36,800;    0,000;-13,40000
 344,02;  -86,700;  -55,900;    0,000;-30,80000
 344,03;   -3,400;  -23,500;    0,000;20,10000
 344,05; -183,700; -135,000;    0,000;-48,70000
 344,06;  -84,800;  -82,400;    0,000;-2,40000
 344,08;  -33,800;   24,800;    0,000;-58,60000
 344,10;   12,900;  -27,100;    0,000;40,00000
 344,11;  -58,800;  -38,700;    0,000;-20,10000
 344,13;   28,900;   36,000;    0,000;-7,10000
 344,14;   20,200;   97,900;    0,000;-77,70000
 344,16; -135,100; -169,700;    0,000;34,60000
 344,17;   64,800;  108,600;    0,000;-43,80000
 344,19; -121,200; -126,700;    0,000; 5,50000
 344,21;  -63,600;  -71,600;    0,000; 8,00000
 344,22;  -59,500;  -72,500;    0,000;13,00000
 344,24;  -46,100;  -31,700;    0,000;-14,40000
 344,25; -133,600; -131,600;    0,000;-2,00000
 344,27;  -42,800;  -36,900;    0,000;-5,90000
 344,28; -166,400; -229,300;    0,000;62,90000
 344,30; -127,900;  -77,000;    0,000;-50,90000
 344,32;   83,000;   39,300;    0,000;43,70000
 344,33;  -61,100;   -1,100;    0,000;-60,00000
 344,35;  -39,400;  -43,300;    0,000; 3,90000
 344,36;  -40,200;  -23,500;    0,000;-16,70000
 344,38;  -31,500;  -69,100;    0,000;37,60000
 344,39;  -56,000;  -29,300;    0,000;-26,70000
 344,41;  118,600;  132,900;    0,000;-14,30000
 344,43; -189,900; -151,400;    0,000;-38,50000
 344,44;   42,500;   33,500;    0,000; 9,00000
 344,46; -184,500; -172,200;    0,000;-12,30000
 344,47;  -46,200;  -49,800;    0,000; 3,60000
 344,49;   33,200;   58,900;    0,000;-25,70000
 344,50; -132,400; -170,400;    0,000;38,00000
 344,52;  127,800;  132,500;    0,000;-4,70000
 344,53;  -65,700;  -80,400;    0,000;14,70000
 344,55;  158,000;  176,600;    0,000;-18,60000
 344,57;  118,400;  120,700;    0,000;-2,30000
 344,58; -260,200; -227,900;    0,000;-32,30000
 344,60;   55,300;   91,000;    0,000;-35,70000
 344,61;  -58,800;   -4,300;    0,000;-54,50000
 344,63;  121,600;  103,000;    0,000;18,60000
 344,64;  145,600;  174,300;    0,000;-28,70000
 344,66;   58,100;   45,600;    0,000;12,50000
 344,67;  -19,200;   -5,300;    0,000;-13,90000
 344,69;   -8,000;  -10,100;    0,000; 2,10000
 344,71;  -71,100;  -72,300;    0,000; 1,20000
 344,72; -107,700; -111,200;    0,000; 3,50000
 344,74;  -97,300;  -55,100;    0,000;-42,20000
 344,75;  117,100;  105,400;    0,000;11,70000
 344,77; -163,100; -121,800;    0,000;-41,30000
 344,78;   12,400;   30,000;    0,000;-17,60000
 344,80;  -16,200;    2,200;    0,000;-18,40000
 344,82;   -9,800;  -50,200;    0,000;40,40000
 344,83;  -63,600;   -6,500;    0,000;-57,10000
 344,85;  -68,200;  -71,200;    0,000; 3,00000
 344,86; -124,500;  -71,000;    0,000;-53,50000
 344,88; -117,200; -128,300;    0,000;11,10000
 344,89;  -24,900;    2,700;    0,000;-27,60000
 344,91; -159,700; -162,000;    0,000; 2,30000
 344,92;   32,000;   36,600;    0,000;-4,60000
 344,94;  -74,800;  -93,000;    0,000;18,20000
 344,96;  -65,300;  -31,700;    0,000;-33,60000
 344,97;   -0,500;  -35,900;    0,000;35,40000
 344,99;   51,200;   82,400;    0,000;-31,20000
 345,00;  173,200;  169,300;    0,000; 3,90000
 345,02;   70,700;   69,200;    0,000; 1,50000
 345,03; -190,700; -211,800;    0,000;21,10000
 345,05; -190,700; -134,000;    0,000;-56,70000
 345,06;   66,600;   44,300;    0,000;22,30000
 345,08; -271,600; -293,900;    0,000;22,30000
 345,10; -155,900; -196,900;    0,000;41,00000
 345,11; -245,300; -230,300;    0,000;-15,00000
 345,13; -105,000;  -93,500;    0,000;-11,50000
 345,14; -146,400; -105,700;    0,000;-40,70000
 345,16; -315,800; -344,000;    0,000;28,20000
 345,17;  -77,900;  -47,000;    0,000;-30,90000
 345,19;  -10,700;  -23,400;    0,000;12,70000
 345,20; -139,200;  -92,500;    0,000;-46,70000
 345,22;   -1,700;  -27,400;    0,000;25,70000
 345,23;  -32,000;  -18,800;    0,000;-13,20000
 345,25;    5,500;   -3,400;    0,000; 8,90000
 345,27;  -82,100;  -45,000;    0,000;-37,10000
 345,28;  -91,400;  -66,900;    0,000;-24,50000
 345,30; -134,500;  -77,200;    0,000;-57,30000
 345,31;  101,000;  110,300;    0,000;-9,30000
 345,33;  117,100;  141,900;    0,000;-24,80000
 345,34;  -89,000;  -65,600;    0,000;-23,40000
 345,36; -165,300; -129,800;    0,000;-35,50000
 345,37; -133,400; -154,600;    0,000;21,20000
 345,39; -117,000;  -67,200;    0,000;-49,80000
 345,41;  124,600;   88,700;    0,000;35,90000
 345,42; -160,000; -136,000;    0,000;-24,00000
 345,44; -150,100; -177,300;    0,000;27,20000
 345,45; -158,000; -146,300;    0,000;-11,70000
 345,47;  -30,500;  -29,600;    0,000;-0,90000
 345,48; -122,800;  -95,500;    0,000;-27,30000
 345,50;  -23,800;  -34,300;    0,000;10,50000
 345,51; -206,400; -197,400;    0,000;-9,00000
 345,53;   41,200;   32,900;    0,000; 8,30000
 345,54;   41,500;   38,600;    0,000; 2,90000
 345,56;   43,500;    9,600;    0,000;33,90000
 345,58; -135,200; -135,100;    0,000;-0,10000
 345,59; -191,400; -207,100;    0,000;15,70000
 345,61; -117,300;  -93,700;    0,000;-23,60000
 345,62; -174,100; -181,100;    0,000; 7,00000
 345,64; -194,100; -185,300;    0,000;-8,80000
 345,65;   20,800;  -21,900;    0,000;42,70000
 345,67; -102,000;  -97,300;    0,000;-4,70000
 345,68;  -32,800;  -82,400;    0,000;49,60000
 345,70; -173,200; -169,000;    0,000;-4,20000
 345,71; -195,000; -215,100;    0,000;20,10000
 345,73;  -28,300;  -12,900;    0,000;-15,40000
 345,75; -130,000; -144,100;    0,000;14,10000
 345,76;  269,500;  318,700;    0,000;-49,20000
 345,78; -171,400; -170,100;    0,000;-1,30000
 345,79; -188,100; -141,500;    0,000;-46,60000
 345,81;   87,600;   77,200;    0,000;10,40000
 345,82;  -75,800;  -36,700;    0,000;-39,10000
 345,84;  135,700;  126,400;    0,000; 9,30000
 345,85; -195,600; -140,700;    0,000;-54,90000
 345,87;  -37,100;  -70,400;    0,000;33,30000
 345,88; -162,000; -158,800;    0,000;-3,20000
 345,90;   -9,000;  -36,600;    0,000;27,60000
 345,91; -172,300; -129,300;    0,000;-43,00000
 345,93;  -95,800; -107,900;    0,000;12,10000
 345,95;  -93,900;  -75,800;    0,000;-18,10000
 345,96;  -38,800;  -56,800;    0,000;18,00000
 345,98; -163,800; -136,700;    0,000;-27,10000
 345,99;  -72,200;  -89,800;    0,000;17,60000
 346,01;  -37,600;    2,500;    0,000;-40,10000
 346,02;  -91,600;  -72,900;    0,000;-18,70000
 346,04;    1,100;   36,200;    0,000;-35,10000
 346,05; -106,300;  -87,400;    0,000;-18,90000
 346,07; -115,200;  -70,800;    0,000;-44,40000
 346,08; -113,500; -172,100;    0,000;58,60000
 346,10; -163,000; -145,700;    0,000;-17,30000
 346,11;  -11,400;   10,000;    0,000;-21,40000
 346,13; -144,600; -158,700;    0,000;14,10000
 346,15;   15,400;   50,500;    0,000;-35,10000
 346,16;  -84,900;  -29,500;    0,000;-55,40000
 346,18;  -13,700;   -4,100;    0,000;-9,60000
 346,19; -211,500; -164,000;    0,000;-47,50000
 346,21;   34,600;  -12,500;    0,000;47,10000
 346,22; -182,800; -160,500;    0,000;-22,30000
 346,24;  -38,500;  -77,100;    0,000;38,60000
 346,25;  -36,900;   -8,200;    0,000;-28,70000
 346,27;  -24,100;  -24,700;    0,000; 0,60000
 346,28; -178,800; -176,700;    0,000;-2,10000
 346,30; -204,200; -206,100;    0,000; 1,90000
 346,31;  -73,500;  -61,700;    0,000;-11,80000
 346,33;  -55,400;  -50,600;    0,000;-4,80000
 346,34; -140,300;  -96,200;    0,000;-44,10000
 346,36;  -63,500; -104,000;    0,000;40,50000
 346,38;   46,400;  115,900;    0,000;-69,50000
 346,39;  -40,200;  -59,900;    0,000;19,70000
 346,41;   68,900;   70,600;    0,000;-1,70000
 346,42;  -93,500; -111,700;    0,000;18,20000
 346,44;   54,200;   52,800;    0,000; 1,40000
 346,45;  -69,100;  -82,000;    0,000;12,90000
 346,47; -189,800; -148,300;    0,000;-41,50000
 346,48;  -22,100;  -68,400;    0,000;46,30000
 346,50;  -67,000;  -13,000;    0,000;-54,00000
 346,51;  -72,200;  -82,400;    0,000;10,20000
 346,53; -286,800; -287,600;    0,000; 0,80000
 346,54;   83,800;   70,800;    0,000;13,00000
 346,56;   17,200;   29,700;    0,000;-12,50000
 346,57;    8,100;   -8,100;    0,000;16,20000
 346,59;  -91,200;  -64,400;    0,000;-26,80000
 346,60;   66,600;   74,800;    0,000;-8,20000
 346,62;  101,800;  122,300;    0,000;-20,50000
 346,64;  -45,600;  -75,500;    0,000;29,90000
 346,65; -127,900;  -78,100;    0,000;-49,80000
 346,67;  -48,500;  -33,300;    0,000;-15,20000
 346,68;   96,400;  140,000;    0,000;-43,60000
 346,70;  -59,300;  -66,300;    0,000; 7,00000
 346,71;  107,700;  142,600;    0,000;-34,90000
 346,73;   33,600;   47,700;    0,000;-14,10000
 346,74;  -50,700;  -19,300;    0,000;-31,40000
 346,76;  -12,000;  -35,600;    0,000;23,60000
 346,77;  -98,700;  -81,400;    0,000;-17,30000
 346,79;   48,100;   28,800;    0,000;19,30000
 346,80;  -27,200;   38,900;    0,000;-66,10000
 346,82;  -27,200;  -48,200;    0,000;21,00000
 346,83;   46,000;   85,500;    0,000;-39,50000
 346,85; -260,300; -284,900;    0,000;24,60000
 346,86; -183,800; -130,100;    0,000;-53,70000
 346,88;   28,700;   22,000;    0,000; 6,70000
 346,89;  -25,500;  -19,600;    0,000;-5,90000
 346,91;  -14,800;   -2,300;    0,000;-12,50000
 346,92; -138,500; -106,500;    0,000;-32,00000
 346,94; -117,700; -122,300;    0,000; 4,60000
 346,96;  -52,000;  -78,100;    0,000;26,10000
 346,97;  -36,900;  -63,700;    0,000;26,80000
 346,99;    4,000;   61,600;    0,000;-57,60000
 347,00;  -90,000; -143,600;    0,000;53,60000
 347,02;  -17,500;   18,800;    0,000;-36,30000
 347,03;  -21,100;  -61,800;    0,000;40,70000
 347,05; -109,100;  -72,800;    0,000;-36,30000
 347,06; -172,500; -225,100;    0,000;52,60000
 347,08; -143,300; -110,100;    0,000;-33,20000
 347,09;  173,800;  163,400;    0,000;10,40000
 347,11; -216,400; -168,800;    0,000;-47,60000
 347,12; -232,500; -253,300;    0,000;20,80000
 347,14; -190,300; -163,000;    0,000;-27,30000
 347,15;  112,600;  116,800;    0,000;-4,20000
 347,17; -227,400; -227,000;    0,000;-0,40000
 347,18;  -53,200;  -66,600;    0,000;13,40000
 347,20;  -35,500;   17,200;    0,000;-52,70000
 347,21;   12,800;   -1,700;    0,000;14,50000
 347,23;   84,300;  120,600;    0,000;-36,30000
 347,24;   19,100;   -9,000;    0,000;28,10000
 347,26;  -29,500;   16,200;    0,000;-45,70000
 347,27;  -20,500;  -52,500;    0,000;32,00000
 347,29;   22,900;   53,100;    0,000;-30,20000
 347,30;   62,700;   67,000;    0,000;-4,30000
 347,32;   12,600;   24,600;    0,000;-12,00000
 347,33; -193,900; -205,300;    0,000;11,40000
 347,35;  -34,700;   -5,400;    0,000;-29,30000
 347,36;  -42,200;  -45,000;    0,000; 2,80000
 347,38;   -2,800;   58,500;    0,000;-61,30000
 347,40;  -81,500; -104,900;    0,000;23,40000
 347,41;   12,900;   29,000;    0,000;-16,10000
 347,43;   82,000;   51,200;    0,000;30,80000
 347,44; -160,600;  -93,400;    0,000;-67,20000
 347,46; -178,500; -190,400;    0,000;11,90000
 347,47; -187,800; -145,700;    0,000;-42,10000
 347,49;  -69,700;  -69,000;    0,000;-0,70000
 347,50; -153,200; -138,200;    0,000;-15,00000
 347,52;    3,800;    4,400;    0,000;-0,60000
 347,53; -145,600;  -86,700;    0,000;-58,90000
 347,55;  -76,500;  -66,300;    0,000;-10,20000
 347,56;  123,600;  173,100;    0,000;-49,50000
 347,58;   -9,900;  -43,800;    0,000;33,90000
 347,59; -192,000; -160,600;    0,000;-31,40000
 347,61;  -29,300;  -55,300;    0,000;26,00000
 347,62; -177,300; -126,000;    0,000;-51,30000
 347,64;  -60,700;  -71,800;    0,000;11,10000
 347,65; -143,200;  -94,800;    0,000;-48,40000
 347,67;  -85,500; -116,600;    0,000;31,10000
 347,68; -244,700; -199,300;    0,000;-45,40000
 347,70; -110,900; -111,800;    0,000; 0,90000
 347,71; -173,200; -124,700;    0,000;-48,50000
 347,73;  -44,500;  -46,100;    0,000; 1,60000
 347,74;  -64,200;  -29,500;    0,000;-34,70000
 347,76;  -11,700;    0,300;    0,000;-12,00000
 347,77; -147,800; -141,200;    0,000;-6,60000
 347,79;  -61,500;  -66,600;    0,000; 5,10000
 347,80;  -25,100;   13,400;    0,000;-38,50000
 347,82;   11,200;  -30,200;    0,000;41,40000
 347,83;   30,000;   48,500;    0,000;-18,50000
 347,85;  -93,700; -107,900;    0,000;14,20000
 347,86;  -74,400;  -56,400;    0,000;-18,00000
 347,88; -173,200; -179,900;    0,000; 6,70000
 347,89;  -65,900;  -48,000;    0,000;-17,90000
 347,91;  123,600;   75,900;    0,000;47,70000
 347,92; -120,800;  -84,600;    0,000;-36,20000
 347,94;  108,600;   82,200;    0,000;26,40000
 347,95;   62,500;  103,500;    0,000;-41,00000
 347,97; -184,200; -183,400;    0,000;-0,80000
 347,98; -139,400; -103,200;    0,000;-36,20000
 348,00; -138,100; -159,200;    0,000;21,10000
 348,01; -143,100; -118,000;    0,000;-25,10000
 348,03; -157,200; -171,400;    0,000;14,20000
 348,04; -189,800; -151,800;    0,000;-38,00000
 348,06; -211,700; -184,600;    0,000;-27,10000
 348,07; -144,600; -122,000;    0,000;-22,60000
 348,09; -138,000; -148,400;    0,000;10,40000
 348,10; -158,600; -129,200;    0,000;-29,40000
 348,12;   32,600;  -11,500;    0,000;44,10000
 348,13;  -60,700;   -2,400;    0,000;-58,30000
 348,15;  -74,500;  -74,800;    0,000; 0,30000
 348,16; -335,000; -264,200;    0,000;-70,80000
 348,18;  -37,500;  -73,100;    0,000;35,60000
 348,19; -192,700; -142,900;    0,000;-49,80000
 348,21;   71,500;   48,600;    0,000;22,90000
 348,22;  -88,900;  -69,400;    0,000;-19,50000
 348,24;  -37,700;  -46,100;    0,000; 8,40000
 348,25;  -63,500;  -29,000;    0,000;-34,50000
 348,27;   27,200;   40,200;    0,000;-13,00000
 348,28; -148,600; -121,300;    0,000;-27,30000
 348,30; -161,500; -140,400;    0,000;-21,10000
 348,31;  -98,700;  -61,900;    0,000;-36,80000
 348,33;   53,900;   19,700;    0,000;34,20000
 348,34; -140,800;  -89,700;    0,000;-51,10000
 348,36;   -2,100;  -48,600;    0,000;46,50000
 348,37; -120,600;  -71,500;    0,000;-49,10000
 348,39;    5,100;   -2,600;    0,000; 7,70000
 348,40; -244,500; -213,100;    0,000;-31,40000
 348,42;  -88,900; -116,200;    0,000;27,30000
 348,43; -137,200; -144,100;    0,000; 6,90000
 348,45;  162,700;  138,700;    0,000;24,00000
 348,46;   52,400;   72,100;    0,000;-19,70000
 348,48; -106,600;  -86,800;    0,000;-19,80000
 348,49;   13,700;   58,200;    0,000;-44,50000
 348,51; -102,700; -119,500;    0,000;16,80000
 348,52; -120,300; -102,200;    0,000;-18,10000
 348,54;  -86,800;  -64,800;    0,000;-22,00000
 348,55; -134,900; -116,400;    0,000;-18,50000
 348,57;   25,300;   11,200;    0,000;14,10000
 348,58;  -32,500;  -14,100;    0,000;-18,40000
 348,60; -102,400; -130,000;    0,000;27,60000
 348,61;   13,400;   42,900;    0,000;-29,50000
 348,63; -220,300; -211,000;    0,000;-9,30000
 348,64; -131,800; -128,600;    0,000;-3,20000
 348,66;  -71,400;  -88,600;    0,000;17,20000
 348,67;  -86,800;  -46,600;    0,000;-40,20000
 348,69;  -70,700;  -66,900;    0,000;-3,80000
 348,70;   45,200;   59,700;    0,000;-14,50000
 348,72;   43,200;   51,700;    0,000;-8,50000
 348,73; -166,700; -182,200;    0,000;15,50000
 348,75;  -83,800;  -92,500;    0,000; 8,70000
 348,76; -125,800; -106,600;    0,000;-19,20000
 348,78;  138,500;  106,000;    0,000;32,50000
 348,79;   -3,000;   20,600;    0,000;-23,60000
 348,81;  -75,700;  -75,500;    0,000;-0,20000
 348,82; -174,100; -122,000;    0,000;-52,10000
 348,84;  -75,000;  -76,800;    0,000; 1,80000
 348,85; -104,400;  -84,100;    0,000;-20,30000
 348,87; -176,600; -159,800;    0,000;-16,80000
 348,88; -206,700; -212,600;    0,000; 5,90000
 348,90; -180,300; -212,600;    0,000;32,30000
 348,91; -145,800; -114,000;    0,000;-31,80000
 348,92;  -34,800;  -48,200;    0,000;13,40000
 348,94; -137,000; -117,800;    0,000;-19,20000
 348,95; -122,900; -165,700;    0,000;42,80000
 348,97;  -75,500;  -49,100;    0,000;-26,40000
 348,98; -139,100; -135,500;    0,000;-3,60000
 349,00; -196,000; -185,900;    0,000;-10,10000
 349,01;   16,600;  -26,500;    0,000;43,10000
 349,03; -135,700; -132,600;    0,000;-3,10000
 349,04; -187,300; -191,500;    0,000; 4,20000
 349,06; -159,100; -123,000;    0,000;-36,10000
 349,07;  -48,700;  -81,000;    0,000;32,30000
 349,09; -173,100; -166,000;    0,000;-7,10000
 349,10;  -75,300;  -78,800;    0,000; 3,50000
 349,12; -239,300; -202,400;    0,000;-36,90000
 349,13;  -23,200;  -32,900;    0,000; 9,70000
 349,15; -127,100; -100,300;    0,000;-26,80000
 349,16;  -54,100;  -90,200;    0,000;36,10000
 349,18;  127,600;  123,700;    0,000; 3,90000
 349,19;   21,800;   54,400;    0,000;-32,60000
 349,21;    6,000;   14,100;    0,000;-8,10000
 349,22;  148,800;  119,300;    0,000;29,50000
 349,24; -131,100;  -92,900;    0,000;-38,20000
 349,25;  -55,800;  -78,600;    0,000;22,80000
 349,27; -130,000; -110,300;    0,000;-19,70000
 349,28;  -30,800;  -53,100;    0,000;22,30000
 349,30;  -81,800;  -45,800;    0,000;-36,00000
 349,31;   30,600;  -14,300;    0,000;44,90000
 349,33;  -13,000;  -17,100;    0,000; 4,10000
 349,34;   21,000;   -3,400;    0,000;24,40000
 349,35;   73,700;   84,000;    0,000;-10,30000
 349,37;   40,000;  -15,000;    0,000;55,00000
 349,38;  -59,200;  -58,600;    0,000;-0,60000
 349,40;  -54,500; -106,800;    0,000;52,30000
 349,41;  -81,500; -116,000;    0,000;34,50000
 349,43;  -57,700;  -76,000;    0,000;18,30000
 349,44;  -88,100;  -56,100;    0,000;-32,00000
 349,46;   63,400;  -11,700;    0,000;75,10000
 349,47;   -2,100;   52,800;    0,000;-54,90000
 349,49;  -83,900;  -65,000;    0,000;-18,90000
 349,50;  -77,900;  -57,900;    0,000;-20,00000
 349,52;  111,200;   99,300;    0,000;11,90000
 349,53; -102,400;  -64,400;    0,000;-38,00000
 349,55;  -27,500;  -42,000;    0,000;14,50000
 349,56;  -41,000;  -32,400;    0,000;-8,60000
 349,58; -131,700; -143,500;    0,000;11,80000
 349,59;   -2,700;   -5,500;    0,000; 2,80000
 349,61;  -41,000;  -58,800;    0,000;17,80000
 349,62; -188,300; -162,500;    0,000;-25,80000
 349,63; -153,300; -177,000;    0,000;23,70000
 349,65;  -63,100;   -2,900;    0,000;-60,20000
 349,66;   18,500;   -2,400;    0,000;20,90000
 349,68; -151,800; -140,000;    0,000;-11,80000
 349,69; -138,900; -127,100;    0,000;-11,80000
 349,71;   20,700;   43,300;    0,000;-22,60000
 349,72;  -30,100;  -61,600;    0,000;31,50000
 349,74; -158,000; -151,300;    0,000;-6,70000
 349,75;  -38,000;  -57,000;    0,000;19,00000
 349,77; -267,300; -233,600;    0,000;-33,70000
 349,78;  -94,600;  -94,700;    0,000; 0,10000
 349,80; -121,900;  -75,700;    0,000;-46,20000
 349,81;  -81,300; -113,700;    0,000;32,40000
 349,83;  -11,800;   31,700;    0,000;-43,50000
 349,84;  -29,000;  -24,900;    0,000;-4,10000
 349,86;  -33,400;   24,300;    0,000;-57,70000
 349,87; -167,300; -184,700;    0,000;17,40000
 349,88; -107,300;  -75,800;    0,000;-31,50000
 349,90; -114,800; -116,500;    0,000; 1,70000
 349,91;   70,300;   93,800;    0,000;-23,50000
 349,93;  -63,300;  -72,000;    0,000; 8,70000
 349,94; -228,100; -193,700;    0,000;-34,40000
 349,96;  -74,700;  -91,700;    0,000;17,00000
 349,97; -184,800; -147,800;    0,000;-37,00000
 349,99;  -33,100;  -65,700;    0,000;32,60000
 350,00; -269,800; -260,300;    0,000;-9,50000
 350,02;   83,100;   48,800;    0,000;34,30000
 350,03;  -99,900;  -82,000;    0,000;-17,90000
 350,05; -230,400; -244,600;    0,000;14,20000
 350,06;  -48,200;  -42,500;    0,000;-5,70000
 350,08; -171,000; -176,100;    0,000; 5,10000
 350,09; -222,900; -200,700;    0,000;-22,20000
 350,10; -206,700; -187,400;    0,000;-19,30000
 350,12; -137,800;  -67,000;    0,000;-70,80000
 350,13;  -73,100;  -60,700;    0,000;-12,40000
 350,15; -100,500;  -52,300;    0,000;-48,20000
 350,16; -154,000; -166,800;    0,000;12,80000
 350,18; -233,400; -213,500;    0,000;-19,90000
 350,19;  -46,800;  -55,200;    0,000; 8,40000
 350,21;  -36,200;  -26,000;    0,000;-10,20000
 350,22;  -21,500;    6,200;    0,000;-27,70000
 350,24; -145,900; -102,800;    0,000;-43,10000
 350,25; -262,500; -288,200;    0,000;25,70000
 350,27; -207,200; -165,500;    0,000;-41,70000
 350,28;  -17,700;  -17,900;    0,000; 0,20000
 350,29;  -17,800;  -19,300;    0,000; 1,50000
 350,31;   31,900;    0,200;    0,000;31,70000
 350,32; -150,600; -119,100;    0,000;-31,50000
 350,34; -188,600; -189,200;    0,000; 0,60000
 350,35; -197,300; -119,000;    0,000;-78,30000
 350,37; -179,900; -204,700;    0,000;24,80000
 350,38;  -74,600;  -40,400;    0,000;-34,20000
 350,40;  -65,200;  -45,300;    0,000;-19,90000
 350,41; -125,400;  -82,400;    0,000;-43,00000
 350,43;   69,400;   51,700;    0,000;17,70000
 350,44;  -92,500;  -86,000;    0,000;-6,50000
 350,46;   -5,300;  -23,400;    0,000;18,10000
 350,47;  -47,700;   -4,400;    0,000;-43,30000
 350,48;   70,900;   49,800;    0,000;21,10000
 350,50; -129,600;  -58,100;    0,000;-71,50000
 350,51;  -40,400;  -51,300;    0,000;10,90000
 350,53;  -88,300;  -47,900;    0,000;-40,40000
 350,54; -197,600; -189,900;    0,000;-7,70000
 350,56;  109,400;  131,100;    0,000;-21,70000
 350,57; -302,000; -297,400;    0,000;-4,60000
 350,59;  -64,000;  -59,200;    0,000;-4,80000
 350,60;  -47,900;  -44,300;    0,000;-3,60000
 350,62; -168,800; -123,600;    0,000;-45,20000
 350,63;  -37,800;  -65,100;    0,000;27,30000
 350,64; -173,200; -143,300;    0,000;-29,90000
 350,66;  -94,900;  -93,100;    0,000;-1,80000
 350,67;   33,100;   66,300;    0,000;-33,20000
 350,69; -144,200; -168,800;    0,000;24,60000
 350,70; -180,700; -154,900;    0,000;-25,80000
 350,72;  -31,200;  -47,500;    0,000;16,30000
 350,73;  -98,800;  -95,800;    0,000;-3,00000
 350,75; -124,500;  -92,700;    0,000;-31,80000
 350,76;   80,800;  106,600;    0,000;-25,80000
 350,78;  -12,800;   20,000;    0,000;-32,80000
 350,79;   97,200;  113,400;    0,000;-16,20000
 350,80; -100,300; -117,400;    0,000;17,10000
 350,82; -176,200; -175,400;    0,000;-0,80000
 350,83;  -71,000;  -82,900;    0,000;11,90000
 350,85; -149,100;  -81,400;    0,000;-67,70000
 350,86; -109,100; -127,200;    0,000;18,10000
 350,88;  -48,300;  -49,900;    0,000; 1,60000
 350,89;  141,200;   89,700;    0,000;51,50000
 350,91;    5,100;   46,800;    0,000;-41,70000
 350,92; -244,200; -234,600;    0,000;-9,60000
 350,93;  -82,300;  -45,700;    0,000;-36,60000
 350,95;  -94,700;  -79,300;    0,000;-15,40000
 350,96;   60,800;   43,300;    0,000;17,50000
 350,98;   12,200;   18,500;    0,000;-6,30000
 350,99; -128,200; -140,700;    0,000;12,50000
 351,01;  -83,900; -105,500;    0,000;21,60000
 351,02;  -47,500;    3,300;    0,000;-50,80000
 351,04;  -80,800; -110,200;    0,000;29,40000
 351,05; -267,300; -209,100;    0,000;-58,20000
 351,07;  -69,300;  -55,000;    0,000;-14,30000
 351,08; -207,500; -134,200;    0,000;-73,30000
 351,09; -218,300; -207,400;    0,000;-10,90000
 351,11; -255,000; -228,400;    0,000;-26,60000
 351,12;  -69,000;  -87,800;    0,000;18,80000
 351,14;  -68,700;  -59,900;    0,000;-8,80000
 351,15;   20,100;    1,300;    0,000;18,80000
 351,17; -139,500; -113,300;    0,000;-26,20000
 351,18; -176,600; -163,200;    0,000;-13,40000
 351,20;  -86,000;  -24,700;    0,000;-61,30000
 351,21;  -41,200;  -77,500;    0,000;36,30000
 351,22; -134,700;  -96,100;    0,000;-38,60000
 351,24;    4,800;   -6,700;    0,000;11,50000
 351,25;  -70,400;  -58,500;    0,000;-11,90000
 351,27;   12,700;  -12,300;    0,000;25,00000
 351,28; -116,300;  -68,400;    0,000;-47,90000
 351,30;   -3,800;  -12,400;    0,000; 8,60000
 351,31;   -5,600;   16,500;    0,000;-22,10000
 351,33;  -28,600;  -55,400;    0,000;26,80000
 351,34; -140,200;  -96,700;    0,000;-43,50000
 351,35;   62,500;   39,500;    0,000;23,00000
 351,37;   17,300;   54,300;    0,000;-37,00000
 351,38;  -76,300;  -97,900;    0,000;21,60000
 351,40;  -26,400;  -10,900;    0,000;-15,50000
 351,41;    9,700;    1,700;    0,000; 8,00000
 351,43; -174,200; -120,300;    0,000;-53,90000
 351,44;  -37,200;  -52,400;    0,000;15,20000
 351,45; -176,900; -174,600;    0,000;-2,30000
 351,47;  -26,000;  -43,700;    0,000;17,70000
 351,48;  -42,000;  -24,800;    0,000;-17,20000
 351,50; -167,200; -182,500;    0,000;15,30000
 351,51;   29,600;   65,100;    0,000;-35,50000
 351,53;  -20,400;  -36,200;    0,000;15,80000
 351,54; -149,000;  -75,200;    0,000;-73,80000
 351,56; -141,900; -160,400;    0,000;18,50000
 351,57; -178,900; -110,900;    0,000;-68,00000
 351,58;  -43,700;  -57,000;    0,000;13,30000
 351,60; -119,200;  -81,600;    0,000;-37,60000
 351,61; -176,700; -169,900;    0,000;-6,80000
 351,63; -164,400; -123,100;    0,000;-41,30000
 351,64;  -46,600;  -71,400;    0,000;24,80000
 351,66;  -14,300;    3,800;    0,000;-18,10000
 351,67;  -87,800; -101,400;    0,000;13,60000
 351,68; -155,800;  -98,200;    0,000;-57,60000
 351,70; -145,000; -171,600;    0,000;26,60000
 351,71; -127,400; -129,300;    0,000; 1,90000
 351,73;   50,700;   24,000;    0,000;26,70000
 351,74; -177,800; -140,100;    0,000;-37,70000
 351,76;  -48,300;  -72,100;    0,000;23,80000
 351,77;    8,100;   39,000;    0,000;-30,90000
 351,78;  -88,300;  -77,800;    0,000;-10,50000
 351,80;   33,100;   49,700;    0,000;-16,60000
 351,81;  163,400;  149,500;    0,000;13,90000
 351,83; -133,100;  -77,100;    0,000;-56,00000
 351,84;   52,700;   49,600;    0,000; 3,10000
 351,86;  -53,900;   -9,600;    0,000;-44,30000
 351,87;  -53,400;  -79,900;    0,000;26,50000
 351,89;  -31,200;    2,000;    0,000;-33,20000
 351,90;   35,000;   11,400;    0,000;23,60000
 351,91; -106,000;  -56,700;    0,000;-49,30000
 351,93;   12,900;  -45,600;    0,000;58,50000
 351,94; -130,600; -117,200;    0,000;-13,40000
 351,96;   22,100;   -1,400;    0,000;23,50000
 351,97;   29,100;   41,600;    0,000;-12,50000
 351,99;  -80,700;  -87,500;    0,000; 6,80000
 352,00;    7,900;   50,100;    0,000;-42,20000
 352,01;   -6,200;  -29,600;    0,000;23,40000
 352,03; -129,700; -108,200;    0,000;-21,50000
 352,04;   95,200;   72,400;    0,000;22,80000
 352,06; -123,700;  -73,200;    0,000;-50,50000
 352,07; -174,400; -172,800;    0,000;-1,60000
 352,09;  -76,500;  -45,700;    0,000;-30,80000
 352,10;  -97,000; -156,700;    0,000;59,70000
 352,11; -117,700;  -96,100;    0,000;-21,60000
 352,13; -123,200; -152,900;    0,000;29,70000
 352,14; -132,500; -124,800;    0,000;-7,70000
 352,16;   54,900;   44,300;    0,000;10,60000
 352,17;  -81,600;  -33,400;    0,000;-48,20000
 352,18;   -9,200;  -38,600;    0,000;29,40000
 352,20;   50,200;   74,900;    0,000;-24,70000
 352,21;  -64,600;  -50,200;    0,000;-14,40000
 352,23;  -31,700;  -14,500;    0,000;-17,20000
 352,24; -150,600; -163,000;    0,000;12,40000
 352,26; -186,900; -170,700;    0,000;-16,20000
 352,27;    2,600;  -32,100;    0,000;34,70000
 352,28; -118,500;  -98,300;    0,000;-20,20000
 352,30; -167,600; -157,700;    0,000;-9,90000
 352,31;    4,500;   15,200;    0,000;-10,70000
 352,33;  -77,600; -118,800;    0,000;41,20000
 352,34;   78,900;  156,200;    0,000;-77,30000
 352,36; -199,800; -205,700;    0,000; 5,90000
 352,37;  -55,400;  -17,700;    0,000;-37,70000
 352,38;   87,000;   62,600;    0,000;24,40000
 352,40;  -26,000;    5,000;    0,000;-31,00000
 352,41;   10,200;   10,100;    0,000; 0,10000
 352,43;  -52,600;  -20,800;    0,000;-31,80000
 352,44;  -49,200;  -67,000;    0,000;17,80000
 352,46;  -61,200;  -50,800;    0,000;-10,40000
 352,47;   70,700;   82,800;    0,000;-12,10000
 352,48;  -79,900;  -40,000;    0,000;-39,90000
 352,50;  -43,400;  -77,200;    0,000;33,80000
 352,51;   62,400;  122,300;    0,000;-59,90000
 352,53;  -68,900; -117,200;    0,000;48,30000
 352,54; -149,200;  -93,800;    0,000;-55,40000
 352,55;   53,300;   43,100;    0,000;10,20000
 352,57;  -18,400;  -43,600;    0,000;25,20000
 352,58;  -91,000; -104,600;    0,000;13,60000
 352,60;  -85,200;  -56,200;    0,000;-29,00000
 352,61;   70,200;   55,800;    0,000;14,40000
 352,63;  -94,200;  -79,200;    0,000;-15,00000
 352,64;   24,000;  -19,300;    0,000;43,30000
 352,65; -251,200; -240,800;    0,000;-10,40000
 352,67; -191,800; -223,700;    0,000;31,90000
 352,68; -135,300; -141,000;    0,000; 5,70000
 352,70; -100,400; -138,400;    0,000;38,00000
 352,71;  -75,900;   -4,400;    0,000;-71,50000
 352,72;   45,900;   14,000;    0,000;31,90000
 352,74;  -26,100;  -27,100;    0,000; 1,00000
 352,75;  -45,700;  -66,800;    0,000;21,10000
 352,77;   -2,900;   28,200;    0,000;-31,10000
 352,78; -156,000; -182,800;    0,000;26,80000
 352,79;  -73,200;  -40,700;    0,000;-32,50000
 352,81;  -70,500; -102,400;    0,000;31,90000
 352,82;  -73,000;  -54,000;    0,000;-19,00000
 352,84; -148,500; -156,800;    0,000; 8,30000
 352,85; -184,500; -164,900;    0,000;-19,60000
 352,87;  -84,000; -124,600;    0,000;40,60000
 352,88;  -93,800;  -37,700;    0,000;-56,10000
 352,89; -137,500; -146,800;    0,000; 9,30000
 352,91;  -52,800;  -14,600;    0,000;-38,20000
 352,92;  -72,500;  -61,400;    0,000;-11,10000
 352,94;  -71,300;  -48,900;    0,000;-22,40000
 352,95;  -91,700;  -79,500;    0,000;-12,20000
 352,96;  -63,300;  -51,100;    0,000;-12,20000
 352,98;   43,500;   24,900;    0,000;18,60000
 352,99;  -72,600;  -85,800;    0,000;13,20000
 353,01; -172,900; -170,800;    0,000;-2,10000
 353,02;  -87,200;  -77,800;    0,000;-9,40000
 353,03;  -16,700;  -25,000;    0,000; 8,30000
 353,05; -175,200; -159,800;    0,000;-15,40000
 353,06;   -4,700;    8,400;    0,000;-13,10000
 353,08;  -52,100;  -20,300;    0,000;-31,80000
 353,09;  -62,800; -104,500;    0,000;41,70000
 353,11; -170,800; -130,000;    0,000;-40,80000
 353,12;  336,300;  308,800;    0,000;27,50000
 353,13;   51,700;   92,500;    0,000;-40,80000
 353,15;  -76,600;  -94,300;    0,000;17,70000
 353,16; -110,500;  -81,000;    0,000;-29,50000
 353,18; -126,700; -146,200;    0,000;19,50000
 353,19; -203,000; -195,600;    0,000;-7,40000
 353,20;  -24,100;  -22,700;    0,000;-1,40000
 353,22; -192,900; -139,300;    0,000;-53,60000
 353,23;   66,600;   44,100;    0,000;22,50000
 353,25;  -46,900;    3,600;    0,000;-50,50000
 353,26; -139,000; -135,900;    0,000;-3,10000
 353,27;    9,300;   23,600;    0,000;-14,30000
 353,29; -265,500; -281,000;    0,000;15,50000
 353,30;   37,400;   64,800;    0,000;-27,40000
 353,32; -158,300; -169,700;    0,000;11,40000
 353,33; -128,000;  -80,800;    0,000;-47,20000
 353,34;    3,600;  -26,600;    0,000;30,20000
 353,36;   -8,400;  -17,700;    0,000; 9,30000
 353,37;  -62,800;  -71,000;    0,000; 8,20000
 353,39;  -97,900;  -66,000;    0,000;-31,90000
 353,40; -145,100; -177,900;    0,000;32,80000
 353,41;  -50,000;  -18,500;    0,000;-31,50000
 353,43; -133,500; -131,300;    0,000;-2,20000
 353,44; -137,000; -105,700;    0,000;-31,30000
 353,46;   13,700;  -59,300;    0,000;73,00000
 353,47; -115,700; -116,100;    0,000; 0,40000
 353,48;  -11,700;   -2,500;    0,000;-9,20000
 353,50;  -13,900;  -12,200;    0,000;-1,70000
 353,51;  -67,300;  -99,500;    0,000;32,20000
 353,53;  180,300;  208,400;    0,000;-28,10000
 353,54;   84,500;   64,100;    0,000;20,40000
 353,55; -222,700; -218,000;    0,000;-4,70000
 353,57;  -39,200;  -27,000;    0,000;-12,20000
 353,58;   29,800;   23,200;    0,000; 6,60000
 353,60; -111,900;  -92,400;    0,000;-19,50000
 353,61;   22,500;   42,800;    0,000;-20,30000
 353,62;  -16,900;    9,100;    0,000;-26,00000
 353,64;   31,600;   58,500;    0,000;-26,90000
 353,65;   30,900;    3,400;    0,000;27,50000
 353,67;  -61,000;  -52,300;    0,000;-8,70000
 353,68;  -74,300;  -64,400;    0,000;-9,90000
 353,69;  -56,000;  -31,700;    0,000;-24,30000
 353,71;   27,400;   40,000;    0,000;-12,60000
 353,72; -249,300; -190,000;    0,000;-59,30000
 353,74;   50,500;   36,900;    0,000;13,60000
 353,75; -128,800; -104,700;    0,000;-24,10000
 353,76;  -26,000;  -36,000;    0,000;10,00000
 353,78; -246,900; -203,900;    0,000;-43,00000
 353,79; -100,200; -128,200;    0,000;28,00000
 353,80;  303,500;  306,000;    0,000;-2,50000
 353,82;  -88,300; -111,600;    0,000;23,30000
 353,83;  -56,700;  -28,600;    0,000;-28,10000
 353,85;  -17,700;  -77,700;    0,000;60,00000
 353,86; -151,500; -108,400;    0,000;-43,10000
 353,87;  -14,200;  -33,600;    0,000;19,40000
 353,89;   96,800;  108,000;    0,000;-11,20000
 353,90;   18,300;   43,800;    0,000;-25,50000
 353,92; -175,200; -129,700;    0,000;-45,50000
 353,93;  -51,200;  -81,500;    0,000;30,30000
 353,94; -265,800; -264,000;    0,000;-1,80000
 353,96;  227,500;  193,600;    0,000;33,90000
 353,97; -112,000;  -81,100;    0,000;-30,90000
 353,99;  -48,600;  -32,300;    0,000;-16,30000
 354,00; -163,600;  -91,400;    0,000;-72,20000
 354,01;   -0,900;    2,900;    0,000;-3,80000
 354,03;  -58,500;  -37,500;    0,000;-21,00000
 354,04; -150,400; -195,800;    0,000;45,40000
 354,06; -240,900; -261,000;    0,000;20,10000
 354,07;  217,800;  183,600;    0,000;34,20000
 354,08; -133,700;  -85,900;    0,000;-47,80000
 354,10;   84,700;   59,500;    0,000;25,20000
 354,11; -219,000; -169,500;    0,000;-49,50000
 354,12;   70,900;   39,900;    0,000;31,00000
 354,14; -213,400; -198,100;    0,000;-15,30000
 354,15;   16,300;   -5,300;    0,000;21,60000
 354,17; -103,500;  -93,900;    0,000;-9,60000
 354,18;  -52,800;  -46,200;    0,000;-6,60000
 354,19;  -32,400;    5,000;    0,000;-37,40000
 354,21; -105,700; -129,400;    0,000;23,70000
 354,22; -179,500; -156,400;    0,000;-23,10000
 354,24;   31,300;   12,700;    0,000;18,60000
 354,25;  -15,600;  -20,500;    0,000; 4,90000
 354,26;  -13,400;  -46,100;    0,000;32,70000
 354,28;   23,300;   55,900;    0,000;-32,60000
 354,29;  -75,500; -106,300;    0,000;30,80000
 354,30; -113,200;  -62,700;    0,000;-50,50000
 354,32;  159,800;  118,200;    0,000;41,60000
 354,33;  -12,800;    1,500;    0,000;-14,30000
 354,35; -196,500; -243,800;    0,000;47,30000
 354,36;  -70,100;  -57,200;    0,000;-12,90000
 354,37;   29,800;    6,700;    0,000;23,10000
 354,39; -166,600; -115,400;    0,000;-51,20000
 354,40;  -47,300;  -66,300;    0,000;19,00000
 354,41;  -32,100;    6,400;    0,000;-38,50000
 354,43; -136,100; -143,400;    0,000; 7,30000
 354,44;  -12,800;    7,900;    0,000;-20,70000
 354,46; -169,600; -191,200;    0,000;21,60000
 354,47; -170,700; -137,900;    0,000;-32,80000
 354,48; -101,100; -129,300;    0,000;28,20000
 354,50;  -95,600;  -37,200;    0,000;-58,40000
 354,51;  -18,700;  -33,300;    0,000;14,60000
 354,53;  -80,800;  -86,500;    0,000; 5,70000
 354,54;  -88,800;  -86,900;    0,000;-1,90000
 354,55;  -99,600;  -70,200;    0,000;-29,40000
 354,57;  -12,800;  -56,700;    0,000;43,90000
 354,58;  -49,700;   -2,300;    0,000;-47,40000
 354,59;   45,400;    9,000;    0,000;36,40000
 354,61;  -86,700;  -70,700;    0,000;-16,00000
 354,62;   15,400;   10,900;    0,000; 4,50000
 354,64; -150,600; -135,700;    0,000;-14,90000
 354,65; -127,000; -125,900;    0,000;-1,10000
 354,66; -195,600; -194,500;    0,000;-1,10000
 354,68;  -55,300;  -61,000;    0,000; 5,70000
 354,69;   57,200;   95,500;    0,000;-38,30000
 354,70;  -69,500;  -72,100;    0,000; 2,60000
 354,72; -158,200; -119,800;    0,000;-38,40000
 354,73;  -80,400; -112,400;    0,000;32,00000
 354,75;   42,800;   80,700;    0,000;-37,90000
 354,76; -102,200; -132,400;    0,000;30,20000
 354,77; -136,500;  -99,000;    0,000;-37,50000
 354,79;  -12,200;  -27,400;    0,000;15,20000
 354,80;  125,700;  151,100;    0,000;-25,40000
 354,81; -130,100; -152,000;    0,000;21,90000
 354,83;  -94,400;  -55,100;    0,000;-39,30000
 354,84; -263,900; -247,500;    0,000;-16,40000
 354,86;   45,000;   85,400;    0,000;-40,40000
 354,87;  -11,700;  -37,600;    0,000;25,90000
 354,88; -269,200; -223,700;    0,000;-45,50000
 354,90; -143,300; -167,400;    0,000;24,10000
 354,91; -130,800;  -75,300;    0,000;-55,50000
 354,92;   92,200;   82,800;    0,000; 9,40000
 354,94;    3,100;   39,600;    0,000;-36,50000
 354,95; -102,600;  -85,800;    0,000;-16,80000
 354,96;  -36,500;  -17,500;    0,000;-19,00000
 354,98;  -70,000;  -61,700;    0,000;-8,30000
 354,99;  -66,700;  -41,900;    0,000;-24,80000
 355,01; -211,600; -259,400;    0,000;47,80000
 355,02;  -61,400;  -17,100;    0,000;-44,30000
 355,03;  200,500;  191,900;    0,000; 8,60000
 355,05; -114,000;  -61,900;    0,000;-52,10000
 355,06;   28,700;    5,600;    0,000;23,10000
 355,07; -175,000; -143,700;    0,000;-31,30000
 355,09; -132,100; -146,100;    0,000;14,00000
 355,10; -138,600;  -90,800;    0,000;-47,80000
 355,12;  -85,500; -141,600;    0,000;56,10000
 355,13; -259,500; -214,000;    0,000;-45,50000
 355,14; -177,900; -180,000;    0,000; 2,10000
 355,16;  -75,000;  -24,300;    0,000;-50,70000
 355,17;  -30,800;  -36,100;    0,000; 5,30000
 355,18;  -91,600;  -43,100;    0,000;-48,50000
 355,20; -152,200; -164,400;    0,000;12,20000
 355,21;  -90,800;  -51,000;    0,000;-39,80000
 355,22; -119,300; -141,900;    0,000;22,60000
 355,24;  -90,500;  -43,300;    0,000;-47,20000
 355,25;   99,900;   49,100;    0,000;50,80000
 355,27; -201,000; -141,800;    0,000;-59,20000
 355,28;   91,600;   92,700;    0,000;-1,10000
 355,29;  -38,400;  -45,800;    0,000; 7,40000
 355,31; -187,000; -183,100;    0,000;-3,90000
 355,32; -217,300; -162,100;    0,000;-55,20000
 355,33;  -15,700;  -24,200;    0,000; 8,50000
 355,35;   58,900;   59,400;    0,000;-0,50000
 355,36;  -43,400;  -53,500;    0,000;10,10000
 355,37;  -75,200;  -52,900;    0,000;-22,30000
 355,39;  -31,400;  -43,600;    0,000;12,20000
 355,40;  -42,000;  -33,900;    0,000;-8,10000
 355,42;  -97,800; -147,300;    0,000;49,50000
 355,43; -244,500; -202,400;    0,000;-42,10000
 355,44;   23,800;   10,400;    0,000;13,40000
 355,46;   69,400;   78,400;    0,000;-9,00000
 355,47;  -78,600;  -76,300;    0,000;-2,30000
 355,48;  143,600;  134,000;    0,000; 9,60000
 355,50;  -31,900;  -47,900;    0,000;16,00000
 355,51; -111,900;  -74,000;    0,000;-37,90000
 355,52;   41,400;   30,800;    0,000;10,60000
 355,54;  -96,200;  -31,000;    0,000;-65,20000
 355,55; -145,800; -145,500;    0,000;-0,30000
 355,56;  -55,400;  -17,400;    0,000;-38,00000
 355,58;  -99,600; -113,800;    0,000;14,20000
 355,59;   34,000;   40,400;    0,000;-6,40000
 355,61;   -6,300;  -54,100;    0,000;47,80000
 355,62; -153,800; -128,500;    0,000;-25,30000
 355,63;  -65,800; -100,400;    0,000;34,60000
 355,65; -167,800; -139,000;    0,000;-28,80000
 355,66; -148,400; -152,800;    0,000; 4,40000
 355,67;   38,400;   58,800;    0,000;-20,40000
 355,69;   24,800;    0,400;    0,000;24,40000
 355,70; -219,100; -160,300;    0,000;-58,80000
 355,71;  -92,500; -103,200;    0,000;10,70000
 355,73;   82,200;   80,900;    0,000; 1,30000
 355,74;  -99,100; -103,100;    0,000; 4,00000
 355,75;   -9,100;   23,400;    0,000;-32,50000
 355,77; -142,600; -145,500;    0,000; 2,90000
 355,78; -121,100;  -86,300;    0,000;-34,80000
 355,79;  -14,800;  -43,500;    0,000;28,70000
 355,81; -185,000; -145,400;    0,000;-39,60000
 355,82;  -73,900; -123,400;    0,000;49,50000
 355,84;  -27,400;   53,200;    0,000;-80,60000
 355,85;   -4,400;  -46,900;    0,000;42,50000
 355,86; -266,900; -227,900;    0,000;-39,00000
 355,88;  -21,300;  -40,600;    0,000;19,30000
 355,89;  -67,500;  -53,000;    0,000;-14,50000
 355,90;  -99,000; -144,900;    0,000;45,90000
 355,92; -111,300;  -35,600;    0,000;-75,70000
 355,93;  -81,500;  -84,400;    0,000; 2,90000
 355,94; -126,200; -110,800;    0,000;-15,40000
 355,96; -178,500; -180,300;    0,000; 1,80000
 355,97; -146,300; -135,300;    0,000;-11,00000
 355,98;   18,500;   40,000;    0,000;-21,50000
 356,00;  -59,600;  -24,400;    0,000;-35,20000
 356,01; -131,000; -127,400;    0,000;-3,60000
 356,02; -110,500; -112,000;    0,000; 1,50000
 356,04;  -93,300;  -85,600;    0,000;-7,70000
 356,05;  -20,500;  -13,900;    0,000;-6,60000
 356,06;  -78,100;  -87,800;    0,000; 9,70000
 356,08;  -96,900;  -39,900;    0,000;-57,00000
 356,09;  -16,600;  -43,700;    0,000;27,10000
 356,11;   25,100;   75,200;    0,000;-50,10000
 356,12;  -87,300;  -74,100;    0,000;-13,20000
 356,13;  -82,300;  -74,800;    0,000;-7,50000
 356,15;   49,500;    0,100;    0,000;49,40000
 356,16;  -30,900;   11,000;    0,000;-41,90000
 356,17;  -27,200;  -31,400;    0,000; 4,20000
 356,19;  -52,600;  -18,000;    0,000;-34,60000
 356,20; -179,800; -180,600;    0,000; 0,80000
 356,21; -212,700; -150,900;    0,000;-61,80000
 356,23;  -92,700; -133,000;    0,000;40,30000
 356,24; -266,500; -238,000;    0,000;-28,50000
 356,25;   60,500;   18,100;    0,000;42,40000
 356,27;   19,300;   73,000;    0,000;-53,70000
 356,28; -151,800; -172,200;    0,000;20,40000
 356,29; -222,800; -161,800;    0,000;-61,00000
 356,31;   65,600;   27,500;    0,000;38,10000
 356,32; -195,100; -159,700;    0,000;-35,40000
 356,33; -149,400; -138,600;    0,000;-10,80000
 356,35; -100,200;  -54,800;    0,000;-45,40000
 356,36;   -9,700;  -17,400;    0,000; 7,70000
 356,37;   41,100;   50,400;    0,000;-9,30000
 356,39;   76,200;   43,400;    0,000;32,80000
 356,40; -220,700; -180,500;    0,000;-40,20000
 356,41;   43,300;   14,200;    0,000;29,10000
 356,43;  -51,200;   -4,400;    0,000;-46,80000
 356,44; -175,700; -214,900;    0,000;39,20000
 356,45;  -93,700;  -58,000;    0,000;-35,70000
 356,47; -144,000; -142,800;    0,000;-1,20000
 356,48;  -51,200;  -21,600;    0,000;-29,60000
 356,49;  -46,200;  -53,600;    0,000; 7,40000
 356,51; -152,400; -140,600;    0,000;-11,80000
 356,52;   -9,800;  -46,000;    0,000;36,20000
 356,53;  -86,400;  -82,700;    0,000;-3,70000
 356,55; -203,500; -195,400;    0,000;-8,10000
 356,56; -132,100;  -61,300;    0,000;-70,80000
 356,57;  -46,800;  -42,200;    0,000;-4,60000
 356,59;  102,600;  152,200;    0,000;-49,60000
 356,60;  136,200;  128,500;    0,000; 7,70000
 356,61; -167,200; -123,000;    0,000;-44,20000
 356,63;  210,900;  177,400;    0,000;33,50000
 356,64;  -10,500;   63,800;    0,000;-74,30000
 356,65;  -51,900;  -84,300;    0,000;32,40000
 356,67; -182,000; -156,300;    0,000;-25,70000
 356,68;  131,700;   83,400;    0,000;48,30000
 356,69; -172,500; -120,400;    0,000;-52,10000
 356,71;   46,100;    0,600;    0,000;45,50000
 356,72; -122,900; -111,900;    0,000;-11,00000
 356,73;  -79,100;  -75,400;    0,000;-3,70000
 356,75;   10,700;   78,700;    0,000;-68,00000
 356,76;  -18,100;  -24,200;    0,000; 6,10000
 356,77; -174,800; -120,400;    0,000;-54,40000
 356,79;  -50,600;  -53,600;    0,000; 3,00000
 356,80; -132,500; -102,100;    0,000;-30,40000
 356,81;  -89,900; -116,400;    0,000;26,50000
 356,83; -295,900; -264,400;    0,000;-31,50000
 356,84;  -81,200;  -54,600;    0,000;-26,60000
 356,85; -172,800; -119,600;    0,000;-53,20000
 356,87; -106,500; -103,700;    0,000;-2,80000
 356,88; -175,000; -161,100;    0,000;-13,90000
 356,89;  -19,000;  -28,600;    0,000; 9,60000
 356,91;  -14,100;   -3,300;    0,000;-10,80000
 356,92;  -54,600;  -59,600;    0,000; 5,00000
 356,93; -103,000;  -24,400;    0,000;-78,60000
 356,95;  -47,200;  -48,500;    0,000; 1,30000
 356,96;  -75,800;  -49,400;    0,000;-26,40000
 356,97; -105,500; -153,800;    0,000;48,30000
 356,99; -203,500; -187,800;    0,000;-15,70000
 357,00;  -18,400;  -31,900;    0,000;13,50000
 357,01; -142,700; -103,800;    0,000;-38,90000
 357,03;   94,100;   89,000;    0,000; 5,10000
 357,04;  -94,100;  -75,000;    0,000;-19,10000
 357,05;   73,500;   91,100;    0,000;-17,60000
 357,07; -123,400;  -85,500;    0,000;-37,90000
 357,08; -104,400; -112,700;    0,000; 8,30000
 357,09; -122,100;  -35,600;    0,000;-86,50000
 357,11; -150,400; -168,000;    0,000;17,60000
 357,12;  -43,600;   26,700;    0,000;-70,30000
 357,13;  -71,800;  -90,300;    0,000;18,50000
 357,15; -324,200; -265,100;    0,000;-59,10000
 357,16; -106,500; -120,900;    0,000;14,40000
 357,17; -104,900;  -71,200;    0,000;-33,70000
 357,19;   -5,100;    0,000;    0,000;-5,10000
 357,20;   48,100;   82,300;    0,000;-34,20000
 357,21;    1,300;    5,700;    0,000;-4,40000
 357,23;  -88,500;  -79,100;    0,000;-9,40000
 357,24;  -63,400;  -93,800;    0,000;30,40000
 357,25;  -15,700;   -3,300;    0,000;-12,40000
 357,26; -133,400; -149,800;    0,000;16,40000
 357,28; -180,800; -183,400;    0,000; 2,60000
 357,29; -108,500; -128,700;    0,000;20,20000
 357,30;  -48,100;  -29,700;    0,000;-18,40000
 357,32;  -85,900;  -99,000;    0,000;13,10000
 357,33; -186,600; -175,800;    0,000;-10,80000
 357,34;   89,700;  122,500;    0,000;-32,80000
 357,36;  -71,600;  -23,800;    0,000;-47,80000
 357,37;  -23,200;  -26,700;    0,000; 3,50000
 357,38; -152,500; -110,200;    0,000;-42,30000
 357,40; -162,900; -180,500;    0,000;17,60000
 357,41; -134,500; -143,300;    0,000; 8,80000
 357,42; -150,400; -160,700;    0,000;10,30000
 357,44;   91,100;  105,400;    0,000;-14,30000
 357,45;    9,000;    1,600;    0,000; 7,40000
 357,46; -259,200; -243,400;    0,000;-15,80000
 357,48;  -16,800;  -16,500;    0,000;-0,30000
 357,49;  -27,700;   -9,700;    0,000;-18,00000
 357,50;   48,300;   37,300;    0,000;11,00000
 357,52;   74,500;  132,400;    0,000;-57,90000
 357,53;  -84,800; -120,500;    0,000;35,70000
 357,54; -142,500; -115,100;    0,000;-27,40000
 357,55;  -53,200;  -98,500;    0,000;45,30000
 357,57; -218,500; -209,300;    0,000;-9,20000
 357,58; -103,500; -104,800;    0,000; 1,30000
 357,59;  -72,400;  -55,400;    0,000;-17,00000
 357,61;  -36,000;  -16,000;    0,000;-20,00000
 357,62; -117,200; -101,400;    0,000;-15,80000
 357,63;   66,300;   38,000;    0,000;28,30000
 357,65; -224,200; -188,300;    0,000;-35,90000
 357,66;  -62,700;  -78,100;    0,000;15,40000
 357,67;  -75,300;  -47,000;    0,000;-28,30000
 357,69;  -19,400;  -51,300;    0,000;31,90000
 357,70; -280,000; -254,900;    0,000;-25,10000
 357,71;  -65,200;  -16,500;    0,000;-48,70000
 357,73;  222,900;  190,000;    0,000;32,90000
 357,74;  -60,200; -104,100;    0,000;43,90000
 357,75;   -0,100;  -15,800;    0,000;15,70000
 357,76;   -8,200;  -22,700;    0,000;14,50000
 357,78;    7,200;   69,000;    0,000;-61,80000
 357,79;   31,600;   26,100;    0,000; 5,50000
 357,80;  -94,600;  -56,400;    0,000;-38,20000
 357,82;    3,600;   -9,000;    0,000;12,60000
 357,83; -226,100; -216,900;    0,000;-9,20000
 357,84; -126,000; -138,300;    0,000;12,30000
 357,86;  -25,400;   17,300;    0,000;-42,70000
 357,87; -103,900; -124,100;    0,000;20,20000
 357,88;  -15,500;   24,800;    0,000;-40,30000
 357,90;  -38,600;  -72,500;    0,000;33,90000
 357,91;  -83,400;  -19,300;    0,000;-64,10000
 357,92;  -52,600;  -45,200;    0,000;-7,40000
 357,93; -213,500; -164,400;    0,000;-49,10000
 357,95; -102,200; -142,700;    0,000;40,50000
 357,96;  -85,300;  -86,900;    0,000; 1,60000
 357,97;  -65,900;  -98,400;    0,000;32,50000
 357,99;  -78,200;  -18,700;    0,000;-59,50000
 358,00;   -8,200;  -33,500;    0,000;25,30000
 358,01; -170,600; -120,400;    0,000;-50,20000
 358,03;  -62,900;  -47,200;    0,000;-15,70000
 358,04; -184,400; -158,200;    0,000;-26,20000
 358,05;   28,600;  -11,500;    0,000;40,10000
 358,07;  -45,100;  -24,400;    0,000;-20,70000
 358,08; -127,200; -162,500;    0,000;35,30000
 358,09; -213,500; -203,800;    0,000;-9,70000
 358,10;   39,300;   10,200;    0,000;29,10000
 358,12;  -62,400;   -1,500;    0,000;-60,90000
 358,13;  -96,700;  -92,300;    0,000;-4,40000
 358,14;  -78,500;  -56,200;    0,000;-22,30000
 358,16; -127,500; -158,200;    0,000;30,70000
 358,17;   38,000;   50,000;    0,000;-12,00000
 358,18; -103,300;  -85,800;    0,000;-17,50000
 358,20;   17,400;   30,300;    0,000;-12,90000
 358,21;  -15,200;  -19,600;    0,000; 4,40000
 358,22;    7,200;   24,600;    0,000;-17,40000
 358,23;  -84,700; -110,000;    0,000;25,30000
 358,25; -151,400; -127,400;    0,000;-24,00000
 358,26;   26,700;  -22,400;    0,000;49,10000
 358,27;  -82,500;  -63,900;    0,000;-18,60000
 358,29; -155,400; -155,800;    0,000; 0,40000
 358,30; -138,600; -121,500;    0,000;-17,10000
 358,31;  102,400;   88,500;    0,000;13,90000
 358,33; -128,300; -114,000;    0,000;-14,30000
 358,34;    1,700;  -26,900;    0,000;28,60000
 358,35;  -69,500;  -46,100;    0,000;-23,40000
 358,36; -106,900; -126,300;    0,000;19,40000
 358,38; -247,800; -200,600;    0,000;-47,20000
 358,39; -177,300; -188,600;    0,000;11,30000
 358,40; -145,300; -119,900;    0,000;-25,40000
 358,42; -119,700; -140,300;    0,000;20,60000
 358,43;  -96,100;  -99,700;    0,000; 3,60000
 358,44; -147,400; -171,700;    0,000;24,30000
 358,45; -283,200; -263,200;    0,000;-20,00000
 358,47;  -15,300;   45,600;    0,000;-60,90000
 358,48;  -89,600;  -55,600;    0,000;-34,00000
 358,49; -161,700; -173,200;    0,000;11,50000
 358,51;   -8,800;   38,700;    0,000;-47,50000
 358,52;  -71,800;  -80,100;    0,000; 8,30000
 358,53;   79,100;  105,300;    0,000;-26,20000
 358,55; -164,600; -163,400;    0,000;-1,20000
 358,56;   43,100;   58,000;    0,000;-14,90000
 358,57; -175,700; -187,800;    0,000;12,10000
 358,58;  101,600;  127,600;    0,000;-26,00000
 358,60;  -73,000;  -81,600;    0,000; 8,60000
 358,61; -120,200;  -89,300;    0,000;-30,90000
 358,62;  -26,800;   13,000;    0,000;-39,80000
 358,64; -101,800;  -82,300;    0,000;-19,50000
 358,65; -170,300; -185,100;    0,000;14,80000
 358,66; -122,400;  -94,400;    0,000;-28,00000
 358,67;    9,900;    5,700;    0,000; 4,20000
 358,69; -150,300; -123,300;    0,000;-27,00000
 358,70;    0,000;  -22,700;    0,000;22,70000
 358,71; -115,500;  -80,600;    0,000;-34,90000
 358,73;  -18,200;  -36,800;    0,000;18,60000
 358,74; -174,400; -136,600;    0,000;-37,80000
 358,75; -169,500; -202,700;    0,000;33,20000
 358,76; -180,900; -136,400;    0,000;-44,50000
 358,78;   31,200;    6,200;    0,000;25,00000
 358,79;   40,400;   79,600;    0,000;-39,20000
 358,80;   22,900;  -27,900;    0,000;50,80000
 358,82; -206,300; -181,200;    0,000;-25,10000
 358,83; -156,700; -167,500;    0,000;10,80000
 358,84; -113,400;  -82,800;    0,000;-30,60000
 358,85;  -92,900;  -77,900;    0,000;-15,00000
 358,87; -131,700; -104,500;    0,000;-27,20000
 358,88; -116,600; -123,600;    0,000; 7,00000
 358,89;  126,000;  163,200;    0,000;-37,20000
 358,91;  896,900;  886,400;    0,000;10,50000
 358,92; -102,700;  -34,800;    0,000;-67,90000
 358,93; -139,200; -154,000;    0,000;14,80000
 358,94;  -68,500;  -16,100;    0,000;-52,40000
 358,96;   44,200;   50,600;    0,000;-6,40000
 358,97; -274,900; -255,300;    0,000;-19,60000
 358,98;  -15,300;  -28,900;    0,000;13,60000
 359,00;   36,900;   89,600;    0,000;-52,70000
 359,01;   70,200;   46,500;    0,000;23,70000
 359,02;  -76,300;  -12,800;    0,000;-63,50000
 359,03; -102,700; -110,100;    0,000; 7,40000
 359,05;   56,200;   81,100;    0,000;-24,90000
 359,06; -214,100; -226,800;    0,000;12,70000
 359,07; -183,400; -124,600;    0,000;-58,80000
 359,09;  -77,900;  -98,100;    0,000;20,20000
 359,10;   11,400;   21,700;    0,000;-10,30000
 359,11;  -77,200;  -73,900;    0,000;-3,30000
 359,12; -251,200; -212,600;    0,000;-38,60000
 359,14;   -9,900;  -41,300;    0,000;31,40000
 359,15;  -20,700;    8,500;    0,000;-29,20000
 359,16;  -96,900; -125,400;    0,000;28,50000
 359,18;  -51,400;  -38,600;    0,000;-12,80000
 359,19;  -37,300;  -45,300;    0,000; 8,00000
 359,20; -111,400;  -45,700;    0,000;-65,70000
 359,21; -113,500; -115,800;    0,000; 2,30000
 359,23; -212,100; -147,400;    0,000;-64,70000
 359,24;   18,000;   41,800;    0,000;-23,80000
 359,25;  -99,000;  -66,000;    0,000;-33,00000
 359,26;  -35,900;  -61,200;    0,000;25,30000
 359,28;  -80,200;  -50,100;    0,000;-30,10000
 359,29;  116,600;  108,200;    0,000; 8,40000
 359,30;   95,900;  113,000;    0,000;-17,10000
 359,32;   12,700;    9,700;    0,000; 3,00000
 359,33;  -73,300;  -50,900;    0,000;-22,40000
 359,34;   -8,300;  -18,800;    0,000;10,50000
 359,35;   36,400;   63,800;    0,000;-27,40000
 359,37;  -35,800;  -53,200;    0,000;17,40000
 359,38; -108,600;  -36,400;    0,000;-72,20000
 359,39;   -8,500;  -35,500;    0,000;27,00000
 359,40;   -2,200;   40,200;    0,000;-42,40000
 359,42;  -75,000;  -68,200;    0,000;-6,80000
 359,43; -115,800;  -74,900;    0,000;-40,90000
 359,44;  -20,000;  -25,200;    0,000; 5,20000
 359,46;  -59,200;  -25,200;    0,000;-34,00000
 359,47;  -58,700;  -44,800;    0,000;-13,90000
 359,48;  -79,800;  -47,800;    0,000;-32,00000
 359,49; -131,200; -133,200;    0,000; 2,00000
 359,51; -156,500; -137,800;    0,000;-18,70000
 359,52;  -48,700;  -78,700;    0,000;30,00000
 359,53;  -99,200;  -15,900;    0,000;-83,30000
 359,54; -127,900; -128,200;    0,000; 0,30000
 359,56;  -12,500;   13,000;    0,000;-25,50000
 359,57;   12,900;   32,200;    0,000;-19,30000
 359,58;  -95,300;  -33,700;    0,000;-61,60000
 359,60;  -40,400;  -45,600;    0,000; 5,20000
 359,61;  -37,600;  -28,600;    0,000;-9,00000
 359,62;  140,900;  176,600;    0,000;-35,70000
 359,63;  -16,000;   15,600;    0,000;-31,60000
 359,65;  -56,400;  -98,700;    0,000;42,30000
 359,66; -168,000; -114,900;    0,000;-53,10000
 359,67; -140,400; -150,300;    0,000; 9,90000
 359,68; -119,500;  -59,500;    0,000;-60,00000
 359,70;  -48,100;  -65,800;    0,000;17,70000
 359,71; -239,000; -206,700;    0,000;-32,30000
 359,72;   -8,300;  -11,600;    0,000; 3,30000
 359,74; -158,700;  -90,100;    0,000;-68,60000
 359,75;  -65,400;  -93,900;    0,000;28,50000
 359,76;   40,700;   43,500;    0,000;-2,80000
 359,77;   -6,500;    3,400;    0,000;-9,90000
 359,79;  -96,900;  -20,500;    0,000;-76,40000
 359,80;  -78,200; -101,300;    0,000;23,10000
 359,81; -136,500;  -61,400;    0,000;-75,10000
 359,82; -210,900; -224,600;    0,000;13,70000
 359,84; -160,500; -139,800;    0,000;-20,70000
 359,85;  -79,200; -115,300;    0,000;36,10000
 359,86;   56,500;   82,000;    0,000;-25,50000
 359,87;  -86,000;  -84,600;    0,000;-1,40000
 359,89; -193,000; -160,300;    0,000;-32,70000
 359,90;  -55,500;  -52,100;    0,000;-3,40000
 359,91; -208,300; -202,900;    0,000;-5,40000
 359,92;  -77,100;  -56,100;    0,000;-21,00000
 359,94; -250,800; -220,600;    0,000;-30,20000
 359,95; -133,700; -155,700;    0,000;22,00000
 359,96; -137,000; -119,500;    0,000;-17,50000
 359,98;  -97,800;  -67,100;    0,000;-30,70000
 359,99;  -88,900;  -44,300;    0,000;-44,60000
 360,00;  108,500;   92,900;    0,000;15,60000
 360,01; -163,100; -118,000;    0,000;-45,10000
 360,03;  150,700;  118,400;    0,000;32,30000
 360,04; -102,100;  -61,600;    0,000;-40,50000
 360,05;  112,300;   74,700;    0,000;37,60000
 360,06;  -50,400;   -9,500;    0,000;-40,90000
 360,08;  -92,400; -108,400;    0,000;16,00000
 360,09;  -36,300;    1,900;    0,000;-38,20000
 360,10;    6,100;  -15,100;    0,000;21,20000
 360,11; -109,400;  -74,400;    0,000;-35,00000
 360,13;  178,200;  173,300;    0,000; 4,90000
 360,14; -123,700;  -72,700;    0,000;-51,00000
 360,15;   41,000;   21,000;    0,000;20,00000
 360,16;  -19,900;   27,700;    0,000;-47,60000
 360,18; -132,900; -152,900;    0,000;20,00000
 360,19;  -12,000;  -16,800;    0,000; 4,80000
 360,20;   64,600;   54,600;    0,000;10,00000
 360,21;  -20,000;  -30,800;    0,000;10,80000
 360,23;  -11,300;  -21,200;    0,000; 9,90000
 360,24; -118,800;  -61,900;    0,000;-56,90000
 360,25;   46,700;   38,300;    0,000; 8,40000
 360,26;  -22,500;   -2,500;    0,000;-20,00000
 360,28; -124,400; -159,200;    0,000;34,80000
 360,29; -101,600;  -79,600;    0,000;-22,00000
 360,30; -104,300; -106,300;    0,000; 2,00000
 360,31;  -51,100;   -4,200;    0,000;-46,90000
 360,33; -122,500; -140,700;    0,000;18,20000
 360,34; -173,000; -179,600;    0,000; 6,60000
 360,35;   70,400;   67,600;    0,000; 2,80000
 360,36; -159,300; -160,700;    0,000; 1,40000
 360,38; -107,200; -149,000;    0,000;41,80000
 360,39;  -86,100;  -59,900;    0,000;-26,20000
 360,40; -151,800; -122,000;    0,000;-29,80000
 360,41;   82,300;  110,700;    0,000;-28,40000
 360,43;  -65,500;  -83,000;    0,000;17,50000
 360,44; -133,600; -117,300;    0,000;-16,30000
 360,45;  301,500;  286,200;    0,000;15,30000
 360,46;  158,900;  199,100;    0,000;-40,20000
 360,48;  -74,000;  -67,100;    0,000;-6,90000
 360,49; -245,400; -206,600;    0,000;-38,80000
 360,50;  -17,400;  -47,600;    0,000;30,20000
 360,51; -190,900; -163,800;    0,000;-27,10000
 360,53;   66,400;   63,700;    0,000; 2,70000
 360,54; -176,700; -136,000;    0,000;-40,70000
 360,55;  -62,900; -111,500;    0,000;48,60000
 360,56; -127,000;  -59,000;    0,000;-68,00000
 360,58;  -84,300;  -79,000;    0,000;-5,30000
 360,59;  -70,200;  -61,300;    0,000;-8,90000
 360,60;  -74,800;  -67,100;    0,000;-7,70000
 360,61; -200,400; -161,000;    0,000;-39,40000
 360,63; -145,000; -142,600;    0,000;-2,40000
 360,64; -178,900; -167,700;    0,000;-11,20000
 360,65;  -45,300;  -46,400;    0,000; 1,10000
 360,66; -155,800; -163,200;    0,000; 7,40000
 360,68;   36,400;   20,500;    0,000;15,90000
 360,69;  -75,600;  -38,600;    0,000;-37,00000
 360,70;    7,700;  -15,700;    0,000;23,40000
 360,71;  -99,300;  -94,400;    0,000;-4,90000
 360,73;  -19,900;  -10,500;    0,000;-9,40000
 360,74;    9,300;   33,600;    0,000;-24,30000
 360,75;   48,100;   36,600;    0,000;11,50000
 360,76;   83,600;  148,500;    0,000;-64,90000
 360,78; -115,400; -123,900;    0,000; 8,50000
 360,79; -126,400; -140,000;    0,000;13,60000
 360,80;  -35,700;  -51,700;    0,000;16,00000
 360,81;  -71,600;  -70,300;    0,000;-1,30000
 360,83;   26,700;    9,100;    0,000;17,60000
 360,84;  -70,300;  -58,600;    0,000;-11,70000
 360,85; -137,500; -164,600;    0,000;27,10000
 360,86; -200,400; -187,900;    0,000;-12,50000
 360,87;  101,500;   62,700;    0,000;38,80000
 360,89; -101,600;  -29,300;    0,000;-72,30000
 360,90; -133,300; -140,500;    0,000; 7,20000
 360,91;  107,600;  140,300;    0,000;-32,70000
 360,92;  -75,400;  -93,400;    0,000;18,00000
 360,94;  -73,100;  -30,900;    0,000;-42,20000
 360,95;   16,600;   -5,200;    0,000;21,80000
 360,96; -130,800;  -71,700;    0,000;-59,10000
 360,97; -155,600; -164,100;    0,000; 8,50000
 360,99; -156,400; -115,400;    0,000;-41,00000
 361,00;    4,000;  -14,300;    0,000;18,30000
 361,01;   11,100;   17,600;    0,000;-6,50000
 361,02; -153,300; -156,600;    0,000; 3,30000
 361,04;   -2,200;   34,300;    0,000;-36,50000
 361,05;  -11,200;   -7,700;    0,000;-3,50000
 361,06;  162,200;  156,500;    0,000; 5,70000
 361,07;  -75,000; -116,000;    0,000;41,00000
 361,09;  -43,700;  -61,500;    0,000;17,80000
 361,10;   31,800;   21,500;    0,000;10,30000
 361,11;   20,300;   27,600;    0,000;-7,30000
 361,12; -179,400; -201,700;    0,000;22,30000
 361,13; -236,600; -206,500;    0,000;-30,10000
 361,15;    6,500;    8,700;    0,000;-2,20000
 361,16; -180,800; -136,200;    0,000;-44,60000
 361,17;  -23,800;  -71,600;    0,000;47,80000
 361,18; -184,600; -199,700;    0,000;15,10000
 361,20; -107,900; -132,900;    0,000;25,00000
 361,21;   69,500;   84,100;    0,000;-14,60000
 361,22; -111,300; -128,700;    0,000;17,40000
 361,23;  -36,300;    8,200;    0,000;-44,50000
 361,25; -105,600; -102,000;    0,000;-3,60000
 361,26; -150,100; -104,100;    0,000;-46,00000
 361,27;   12,700;   17,000;    0,000;-4,30000
 361,28; -175,800; -160,600;    0,000;-15,20000
 361,29; -210,600; -214,600;    0,000; 4,00000
 361,31; -200,900; -147,300;    0,000;-53,60000
 361,32;  -95,400; -102,300;    0,000; 6,90000
 361,33; -101,600;  -79,000;    0,000;-22,60000
 361,34;  -66,300;  -94,100;    0,000;27,80000
 361,36; -126,800; -107,700;    0,000;-19,10000
 361,37;  -74,300; -113,800;    0,000;39,50000
 361,38; -156,600;  -88,700;    0,000;-67,90000
 361,39;   14,600;   27,000;    0,000;-12,40000
 361,40; -155,500; -108,300;    0,000;-47,20000
 361,42;  -21,500;  -53,700;    0,000;32,20000
 361,43; -127,300; -120,800;    0,000;-6,50000
 361,44;  -10,100;  -39,500;    0,000;29,40000
 361,45; -225,600; -198,700;    0,000;-26,90000
 361,47;   41,000;   21,300;    0,000;19,70000
 361,48; -185,000; -157,600;    0,000;-27,40000
 361,49;  -47,600;  -48,200;    0,000; 0,60000
 361,50; -113,500;  -58,800;    0,000;-54,70000
 361,52; -131,200; -145,700;    0,000;14,50000
 361,53; -131,100; -111,900;    0,000;-19,20000
 361,54;   25,300;    0,400;    0,000;24,90000
 361,55; -224,300; -209,900;    0,000;-14,40000
 361,56;   68,600;   48,700;    0,000;19,90000
 361,58;  174,900;  209,400;    0,000;-34,50000
 361,59; -128,900; -191,700;    0,000;62,80000
 361,60; -110,700;  -78,100;    0,000;-32,60000
 361,61; -114,500; -148,200;    0,000;33,70000
 361,63;  -40,500;   10,100;    0,000;-50,60000
 361,64;  -44,800;  -81,600;    0,000;36,80000
 361,65;  -92,600;  -79,100;    0,000;-13,50000
 361,66; -188,500; -226,300;    0,000;37,80000
 361,67;  -14,700;   20,000;    0,000;-34,70000
 361,69;  -59,200;  -84,800;    0,000;25,60000
 361,70; -118,000;  -61,700;    0,000;-56,30000
 361,71; -188,500; -166,800;    0,000;-21,70000
 361,72;  -30,800;   -5,700;    0,000;-25,10000
 361,74;  -77,200;  -68,700;    0,000;-8,50000
 361,75; -124,000;  -96,200;    0,000;-27,80000
 361,76; -105,900; -122,700;    0,000;16,80000
 361,77; -117,400;  -53,600;    0,000;-63,80000
 361,78; -173,900; -192,300;    0,000;18,40000
 361,80;  -37,600;    4,200;    0,000;-41,80000
 361,81;  -68,900;  -75,600;    0,000; 6,70000
 361,82; -155,000; -104,500;    0,000;-50,50000
 361,83;   71,800;  104,800;    0,000;-33,00000
 361,84; -115,500;  -80,300;    0,000;-35,20000
 361,86;  -44,300;  -57,200;    0,000;12,90000
 361,87;  -52,600;  -23,100;    0,000;-29,50000
 361,88;   73,300;   89,400;    0,000;-16,10000
 361,89; -210,100; -189,100;    0,000;-21,00000
 361,91;   76,400;   76,300;    0,000; 0,10000
 361,92; -149,400; -118,800;    0,000;-30,60000
 361,93;   74,100;   94,800;    0,000;-20,70000
 361,94; -158,600; -155,300;    0,000;-3,30000
 361,95; -101,500; -120,100;    0,000;18,60000
 361,97; -173,800; -148,900;    0,000;-24,90000
 361,98;  -57,700;  -38,800;    0,000;-18,90000
 361,99;  -20,100;   13,200;    0,000;-33,30000
 362,00;  260,700;  238,600;    0,000;22,10000
 362,01; -112,000; -102,900;    0,000;-9,10000
 362,03;  -69,800;  -80,800;    0,000;11,00000
 362,04; -192,500; -172,600;    0,000;-19,90000
 362,05;    7,600;   16,100;    0,000;-8,50000
 362,06;  -46,000;  -28,800;    0,000;-17,20000
 362,08;   -3,600;   -2,000;    0,000;-1,60000
 362,09; -105,400;  -86,900;    0,000;-18,50000
 362,10; -250,300; -255,400;    0,000; 5,10000
 362,11;   63,900;   94,200;    0,000;-30,30000
 362,12;  -11,800;  -38,300;    0,000;26,50000
 362,14;  -14,300;    1,400;    0,000;-15,70000
 362,15; -207,700; -213,500;    0,000; 5,80000
 362,16;  -56,900;  -47,400;    0,000;-9,50000
 362,17;   19,500;   -6,600;    0,000;26,10000
 362,18;  -59,600;  -19,700;    0,000;-39,90000
 362,20; -112,100; -155,700;    0,000;43,60000
 362,21; -145,100;  -78,300;    0,000;-66,80000
 362,22;  -16,400;  -49,500;    0,000;33,10000
 362,23;  -58,800;  -34,800;    0,000;-24,00000
 362,24; -192,000; -210,900;    0,000;18,90000
 362,26; -153,100; -159,400;    0,000; 6,30000
 362,27;  -24,600;  -63,900;    0,000;39,30000
 362,28; -127,800; -121,600;    0,000;-6,20000
 362,29;  -37,000;  -52,200;    0,000;15,20000
 362,30;  -92,500;  -67,500;    0,000;-25,00000
 362,32;  -66,900; -122,000;    0,000;55,10000
 362,33;   47,300;   68,300;    0,000;-21,00000
 362,34;  -95,000; -103,400;    0,000; 8,40000
 362,35;  -18,100;   -6,500;    0,000;-11,60000
 362,36; -139,000; -193,400;    0,000;54,40000
 362,38; -140,000; -108,500;    0,000;-31,50000
 362,39; -186,300; -205,200;    0,000;18,90000
 362,40; -261,500; -215,300;    0,000;-46,20000
 362,41;  -40,500;  -75,900;    0,000;35,40000
 362,42;  -87,000;  -48,600;    0,000;-38,40000
 362,44;  -56,900;  -94,600;    0,000;37,70000
 362,45; -133,000; -107,300;    0,000;-25,70000
 362,46;   13,900;   -4,700;    0,000;18,60000
 362,47; -195,700; -157,800;    0,000;-37,90000
 362,48;  142,500;  147,600;    0,000;-5,10000
 362,50; -155,800; -133,800;    0,000;-22,00000
 362,51;  -25,800;  -45,000;    0,000;19,20000
 362,52; -213,200; -167,200;    0,000;-46,00000
 362,53;  -46,900;  -47,900;    0,000; 1,00000
 362,54;  -82,500;  -64,200;    0,000;-18,30000
 362,56;  182,200;  178,400;    0,000; 3,80000
 362,57;  -58,800;  -41,500;    0,000;-17,30000
 362,58;   46,000;   46,600;    0,000;-0,60000
 362,59; -173,800; -151,000;    0,000;-22,80000
 362,60; -119,200; -110,900;    0,000;-8,30000
 362,62; -194,900; -150,400;    0,000;-44,50000
 362,63; -110,800;  -93,900;    0,000;-16,90000
 362,64; -195,900; -171,400;    0,000;-24,50000
 362,65;  106,700;   57,500;    0,000;49,20000
 362,66; -116,800; -116,600;    0,000;-0,20000
 362,68;   91,400;  107,200;    0,000;-15,80000
 362,69; -111,000;  -88,900;    0,000;-22,10000
 362,70;   15,500;   -7,900;    0,000;23,40000
 362,71; -164,400; -134,700;    0,000;-29,70000
 362,72;  -90,600;  -85,100;    0,000;-5,50000
 362,74;    1,700;   44,900;    0,000;-43,20000
 362,75; -193,800; -199,700;    0,000; 5,90000
 362,76; -123,600; -115,800;    0,000;-7,80000
 362,77;   -4,400;   13,200;    0,000;-17,60000
 362,78;  -37,000;    3,300;    0,000;-40,30000
 362,80;  -42,000;  -15,900;    0,000;-26,10000
 362,81;  -81,600;  -77,300;    0,000;-4,30000
 362,82; -168,900; -186,000;    0,000;17,10000
 362,83;  -28,400;  -13,100;    0,000;-15,30000
 362,84;  188,600;  204,200;    0,000;-15,60000
 362,86;  -18,900;   20,700;    0,000;-39,60000
 362,87;  -56,300;  -86,200;    0,000;29,90000
 362,88; -105,800; -101,300;    0,000;-4,50000
 362,89; -174,900; -200,500;    0,000;25,60000
 362,90; -172,600; -176,800;    0,000; 4,20000
 362,92;   -6,500;  -17,700;    0,000;11,20000
 362,93; -214,900; -169,000;    0,000;-45,90000
 362,94;  -78,000;  -89,800;    0,000;11,80000
 362,95;  214,200;  236,700;    0,000;-22,50000
 362,96;  -13,000;  -28,100;    0,000;15,10000
 362,97;  -12,300;   17,200;    0,000;-29,50000
 362,99;  -98,500;  -82,400;    0,000;-16,10000
 363,00; -169,700; -134,500;    0,000;-35,20000
 363,01;  -43,900;  -46,400;    0,000; 2,50000
 363,02; -202,300; -188,800;    0,000;-13,50000
 363,03;  -73,800;  -97,300;    0,000;23,50000
 363,05;  -97,100;  -40,900;    0,000;-56,20000
 363,06;   99,100;   43,100;    0,000;56,00000
 363,07;  -81,500;  -42,000;    0,000;-39,50000
 363,08;   36,800;   20,300;    0,000;16,50000
 363,09; -100,900;  -55,900;    0,000;-45,00000
 363,11;  -97,700; -124,700;    0,000;27,00000
 363,12;   -1,900;   40,200;    0,000;-42,10000
 363,13; -125,200; -133,500;    0,000; 8,30000
 363,14; -128,100;  -99,600;    0,000;-28,50000
 363,15; -102,900; -124,400;    0,000;21,50000
 363,16; -164,000; -108,700;    0,000;-55,30000
 363,18;   69,400;   65,600;    0,000; 3,80000
 363,19; -189,700; -156,200;    0,000;-33,50000
 363,20;  -59,900;  -59,600;    0,000;-0,30000
 363,21; -244,400; -213,300;    0,000;-31,10000
 363,22;   59,200;   50,500;    0,000; 8,70000
 363,24;   98,800;  136,700;    0,000;-37,90000
 363,25;  -20,000;  -21,500;    0,000; 1,50000
 363,26; -177,600; -144,300;    0,000;-33,30000
 363,27;  -56,500;  -46,000;    0,000;-10,50000
 363,28;  -80,700;  -58,900;    0,000;-21,80000
 363,29; -145,200; -145,600;    0,000; 0,40000
 363,31; -242,500; -231,200;    0,000;-11,30000
 363,32;  -52,500;  -47,100;    0,000;-5,40000
 363,33; -132,000; -132,800;    0,000; 0,80000
 363,34;  -85,200; -101,600;    0,000;16,40000
 363,35; -127,300; -143,700;    0,000;16,40000
 363,36;  -77,100;  -90,900;    0,000;13,80000
 363,38;  -14,600;    1,800;    0,000;-16,40000
 363,39;  793,400;  762,600;    0,000;30,80000
 363,40;  -76,500;  -20,200;    0,000;-56,30000
 363,41;  202,100;  191,600;    0,000;10,50000
 363,42; -160,900; -138,900;    0,000;-22,00000
 363,44; -129,800; -122,200;    0,000;-7,60000
 363,45;  -98,700;  -80,300;    0,000;-18,40000
 363,46;   36,400;    4,700;    0,000;31,70000
 363,47; -134,300; -114,200;    0,000;-20,10000
 363,48;  -62,600;  -82,100;    0,000;19,50000
 363,49; -122,000; -110,400;    0,000;-11,60000
 363,51;  -53,900;  -83,800;    0,000;29,90000
 363,52; -123,100; -113,700;    0,000;-9,40000
 363,53;  -27,800;  -36,900;    0,000; 9,10000
 363,54; -215,000; -189,700;    0,000;-25,30000
 363,55;  -89,700; -105,100;    0,000;15,40000
 363,56;   97,500;  161,900;    0,000;-64,40000
 363,58;   -1,100;   -4,000;    0,000; 2,90000
 363,59; -240,900; -211,100;    0,000;-29,80000
 363,60;   58,600;   22,400;    0,000;36,20000
 363,61; -275,500; -222,700;    0,000;-52,80000
 363,62;  -38,200;  -41,100;    0,000; 2,90000
 363,64;  -29,900;   18,100;    0,000;-48,00000
 363,65;  115,800;   91,700;    0,000;24,10000
 363,66; -164,300; -126,400;    0,000;-37,90000
 363,67;  -67,000;  -64,400;    0,000;-2,60000
 363,68;  -58,000;  -52,600;    0,000;-5,40000
 363,69;  -55,200;  -64,000;    0,000; 8,80000
 363,71; -170,100; -136,400;    0,000;-33,70000
 363,72;  -90,400; -104,400;    0,000;14,00000
 363,73;   86,400;  104,700;    0,000;-18,30000
 363,74; -175,200; -197,400;    0,000;22,20000
 363,75;   46,300;   93,000;    0,000;-46,70000
 363,76; -121,700; -112,600;    0,000;-9,10000
 363,78; -256,000; -233,100;    0,000;-22,90000
 363,79;    9,700;  -35,100;    0,000;44,80000
 363,80; -110,400;  -89,400;    0,000;-21,00000
 363,81;  -86,300; -113,800;    0,000;27,50000
 363,82; -154,800; -126,900;    0,000;-27,90000
 363,83; -124,800;  -94,900;    0,000;-29,90000
 363,85;   14,900;   63,500;    0,000;-48,60000
 363,86;   56,000;   68,500;    0,000;-12,50000
 363,87; -116,100;  -93,800;    0,000;-22,30000
 363,88;  121,200;   69,200;    0,000;52,00000
 363,89; -108,400;  -96,200;    0,000;-12,20000
 363,90; -117,600; -113,000;    0,000;-4,60000
 363,92;  -66,200;  -36,000;    0,000;-30,20000
 363,93;  -30,600;  -44,300;    0,000;13,70000
 363,94;  142,300;  132,000;    0,000;10,30000
 363,95;    3,000;  -23,000;    0,000;26,00000
 363,96;  -46,800;  -64,100;    0,000;17,30000
 363,97;    9,700;   17,400;    0,000;-7,70000
 363,99;  -20,700;   -7,000;    0,000;-13,70000
 364,00;  -24,000;  -55,200;    0,000;31,20000
 364,01; -234,200; -220,100;    0,000;-14,10000
 364,02;   14,600;    8,500;    0,000; 6,10000
 364,03;  -16,900;   20,600;    0,000;-37,50000
 364,04;  -30,300;  -50,300;    0,000;20,00000
 364,05; -132,800; -101,500;    0,000;-31,30000
 364,07; -237,600; -264,900;    0,000;27,30000
 364,08; -184,600; -111,900;    0,000;-72,70000
 364,09; -116,700; -127,500;    0,000;10,80000
 364,10;  -82,700;  -67,200;    0,000;-15,50000
 364,11; -194,900; -225,000;    0,000;30,10000
 364,12; -108,000; -110,600;    0,000; 2,60000
 364,14; -146,600; -143,300;    0,000;-3,30000
 364,15; -197,500; -180,000;    0,000;-17,50000
 364,16;  -31,800;  -63,400;    0,000;31,60000
 364,17;   10,900;   52,300;    0,000;-41,40000
 364,18; -172,100; -141,500;    0,000;-30,60000
 364,19; -163,800; -128,100;    0,000;-35,70000
 364,21;  -16,900;  -53,000;    0,000;36,10000
 364,22;   -6,100;   52,700;    0,000;-58,80000
 364,23;    9,500;  -13,200;    0,000;22,70000
 364,24;   50,200;   89,300;    0,000;-39,10000
 364,25; -130,500; -137,700;    0,000; 7,20000
 364,26;  143,400;  138,400;    0,000; 5,00000
 364,27;  -31,600;  -17,900;    0,000;-13,70000
 364,29; -112,600; -106,100;    0,000;-6,50000
 364,30;    1,200;  -13,200;    0,000;14,40000
 364,31; -148,500; -106,300;    0,000;-42,20000
 364,32;   34,600;   -4,900;    0,000;39,50000
 364,33; -265,800; -222,300;    0,000;-43,50000
 364,34;   45,400;   56,000;    0,000;-10,60000
 364,36;  -99,600;  -47,000;    0,000;-52,60000
 364,37;   41,400;   34,500;    0,000; 6,90000
 364,38; -147,800; -124,400;    0,000;-23,40000
 364,39;   85,600;   48,900;    0,000;36,70000
 364,40; -267,900; -252,700;    0,000;-15,20000
 364,41;   85,700;   57,000;    0,000;28,70000
 364,42;   -0,400;   22,900;    0,000;-23,30000
 364,44;   81,500;   74,300;    0,000; 7,20000
 364,45; -154,100; -109,600;    0,000;-44,50000
 364,46;   43,500;   24,900;    0,000;18,60000
 364,47; -119,500;  -70,300;    0,000;-49,20000
 364,48; -251,600; -262,100;    0,000;10,50000
 364,49; -206,200; -161,000;    0,000;-45,20000
 364,51; -113,500; -105,200;    0,000;-8,30000
 364,52;  -22,200;   -7,500;    0,000;-14,70000
 364,53;  106,700;   88,800;    0,000;17,90000
 364,54; -206,400; -183,100;    0,000;-23,30000
 364,55;  -30,900;    4,200;    0,000;-35,10000
 364,56; -111,800; -136,900;    0,000;25,10000
 364,57;   -2,300;   -2,600;    0,000; 0,30000
 364,59;  -59,300;  -58,800;    0,000;-0,50000
 364,60;   68,200;   54,300;    0,000;13,90000
 364,61; -228,500; -219,000;    0,000;-9,50000
 364,62;  -66,500; -124,000;    0,000;57,50000
 364,63;    3,500;   48,300;    0,000;-44,80000
 364,64; -112,300; -115,300;    0,000; 3,00000
 364,65; -143,600; -102,500;    0,000;-41,10000
 364,67;   92,000;   63,400;    0,000;28,60000
 364,68;  -76,700;  -22,300;    0,000;-54,40000
 364,69;  -90,100;  -92,200;    0,000; 2,10000
 364,70; -186,500; -171,100;    0,000;-15,40000
 364,71;   10,200;   21,200;    0,000;-11,00000
 364,72; -108,700;  -82,100;    0,000;-26,60000
 364,73; -118,000; -123,100;    0,000; 5,10000
 364,75;  -92,800;  -82,800;    0,000;-10,00000
 364,76;   58,300;   18,100;    0,000;40,20000
 364,77;   64,900;   64,300;    0,000; 0,60000
 364,78;  151,200;  105,000;    0,000;46,20000
 364,79; -190,600; -182,200;    0,000;-8,40000
 364,80;  -26,000;  -44,300;    0,000;18,30000
 364,81; -121,000; -102,800;    0,000;-18,20000
 364,83;  -80,200;  -88,300;    0,000; 8,10000
 364,84;  -83,900;  -42,900;    0,000;-41,00000
 364,85;   65,100;   67,200;    0,000;-2,10000
 364,86; -151,700; -133,300;    0,000;-18,40000
 364,87; -207,300; -210,600;    0,000; 3,30000
 364,88;  -90,000;  -33,500;    0,000;-56,50000
 364,89;  -78,700;  -60,100;    0,000;-18,60000
 364,91; -139,600; -100,200;    0,000;-39,40000
 364,92;  -12,600;  -64,900;    0,000;52,30000
 364,93;    8,700;   30,900;    0,000;-22,20000
 364,94; -153,600; -201,900;    0,000;48,30000
 364,95; -191,600; -164,400;    0,000;-27,20000
 364,96;  109,400;  109,700;    0,000;-0,30000
 364,97; -116,100;  -82,600;    0,000;-33,50000
 364,99;  167,800;  149,000;    0,000;18,80000
 365,00;  -94,100;  -79,900;    0,000;-14,20000
 365,01;  108,900;  102,200;    0,000; 6,70000
 365,02;  -13,800;   11,900;    0,000;-25,70000
 365,03;  -77,300;  -78,200;    0,000; 0,90000
 365,04; -153,600; -107,200;    0,000;-46,40000
 365,05;  -41,600;  -57,800;    0,000;16,20000
 365,06; -142,300;  -93,100;    0,000;-49,20000
 365,08;  -23,900;  -66,700;    0,000;42,80000
 365,09; -135,400;  -77,900;    0,000;-57,50000
 365,10; -121,000; -138,000;    0,000;17,00000
 365,11;  -54,600;  -25,700;    0,000;-28,90000
 365,12;  -67,900;  -95,500;    0,000;27,60000
 365,13;  -95,800; -101,200;    0,000; 5,40000
 365,14;   57,300;    2,600;    0,000;54,70000
 365,16; -110,800;  -76,100;    0,000;-34,70000
 365,17;  -30,100;  -21,800;    0,000;-8,30000
 365,18;  -17,300;  -24,900;    0,000; 7,60000
 365,19;  -36,900;  -40,700;    0,000; 3,80000
 365,20; -186,700; -163,600;    0,000;-23,10000
 365,21;  -26,000;   -3,600;    0,000;-22,40000
 365,22; -196,200; -177,000;    0,000;-19,20000
 365,23;  -73,500;  -90,200;    0,000;16,70000
 365,25; -275,200; -250,700;    0,000;-24,50000
 365,26;   20,700;   30,600;    0,000;-9,90000
 365,27;  -77,700;  -25,400;    0,000;-52,30000
 365,28; -225,300; -221,700;    0,000;-3,60000
 365,29; -156,000; -123,300;    0,000;-32,70000
 365,30;  -84,900;  -98,500;    0,000;13,60000
 365,31; -170,300; -160,800;    0,000;-9,50000
 365,32; -189,000; -181,300;    0,000;-7,70000
 365,34; -124,500;  -78,400;    0,000;-46,10000
 365,35;  -23,600;  -33,700;    0,000;10,10000
 365,36;  -43,800;  -33,300;    0,000;-10,50000
 365,37;   -3,200;  -26,200;    0,000;23,00000
 365,38;  -40,300;   -1,100;    0,000;-39,20000
 365,39;  -60,800;  -60,700;    0,000;-0,10000
 365,40;  -94,800;  -54,500;    0,000;-40,30000
 365,41;  -14,200;  -75,800;    0,000;61,60000
 365,43; -242,900; -211,000;    0,000;-31,90000
 365,44;  -89,400; -100,200;    0,000;10,80000
 365,45;   37,900;   88,300;    0,000;-50,40000
 365,46;  -71,800;  -75,300;    0,000; 3,50000
 365,47; -164,200; -125,400;    0,000;-38,80000
 365,48;   32,500;   28,000;    0,000; 4,50000
 365,49;   -8,300;   -8,000;    0,000;-0,30000
 365,50;  -44,600;  -67,400;    0,000;22,80000
 365,52;  -29,700;  -10,900;    0,000;-18,80000
 365,53;    5,600;   10,600;    0,000;-5,00000
 365,54; -118,600; -103,200;    0,000;-15,40000
 365,55;  208,700;  163,500;    0,000;45,20000
 365,56;  143,300;  167,200;    0,000;-23,90000
 365,57;  -23,100;  -29,000;    0,000; 5,90000
 365,58; -188,700; -164,600;    0,000;-24,10000
 365,59;  -88,600; -108,100;    0,000;19,50000
 365,61; -153,500; -169,500;    0,000;16,00000
 365,62; -202,600; -214,400;    0,000;11,80000
 365,63; -197,200; -179,300;    0,000;-17,90000
 365,64; -120,900; -124,800;    0,000; 3,90000
 365,65;  -11,700;   30,400;    0,000;-42,10000
 365,66;   -4,200;  -36,500;    0,000;32,30000
 365,67;   35,600;   92,400;    0,000;-56,80000
 365,68;   13,500;    7,500;    0,000; 6,00000
 365,70; -143,200; -123,800;    0,000;-19,40000
 365,71;   49,400;   62,300;    0,000;-12,90000
 365,72;   45,700;   75,100;    0,000;-29,40000
 365,73;   32,700;   21,700;    0,000;11,00000
 365,74;  -41,600;   13,000;    0,000;-54,60000
 365,75; -203,100; -219,800;    0,000;16,70000
 365,76; -171,300; -154,000;    0,000;-17,30000
 365,77;  -93,600; -123,800;    0,000;30,20000
 365,78;  -58,300;    3,900;    0,000;-62,20000
 365,80;   61,500;   49,400;    0,000;12,10000
 365,81; -118,400; -103,300;    0,000;-15,10000
 365,82;  -73,400;  -52,000;    0,000;-21,40000
 365,83;   10,500;   76,000;    0,000;-65,50000
 365,84;  125,800;  107,500;    0,000;18,30000
 365,85;   70,700;   96,800;    0,000;-26,10000
 365,86; -139,200; -151,600;    0,000;12,40000
 365,87;  -94,700;  -52,900;    0,000;-41,80000
 365,88;   14,900;   25,500;    0,000;-10,60000
 365,90;   10,200;   42,900;    0,000;-32,70000
 365,91;  -91,100; -121,200;    0,000;30,10000
 365,92; -215,200; -169,100;    0,000;-46,10000
 365,93;  183,500;  166,900;    0,000;16,60000
 365,94;   44,300;   76,200;    0,000;-31,90000
 365,95;   62,500;   81,700;    0,000;-19,20000
 365,96;  -39,700;   -1,100;    0,000;-38,60000
 365,97;    8,200;    6,500;    0,000; 1,70000
 365,98;  -37,900;  -42,800;    0,000; 4,90000
 366,00;  -48,900;  -47,100;    0,000;-1,80000
 366,01; -151,900; -144,200;    0,000;-7,70000
 366,02;  -51,300;  -89,400;    0,000;38,10000
 366,03;  -52,100;  -22,000;    0,000;-30,10000
 366,04; -196,300; -203,200;    0,000; 6,90000
 366,05; -100,100;  -46,800;    0,000;-53,30000
 366,06;   74,600;   69,900;    0,000; 4,70000
 366,07;   16,700;   27,300;    0,000;-10,60000
 366,08;  -28,700;  -66,400;    0,000;37,70000
 366,10; -292,200; -317,700;    0,000;25,50000
 366,11;   56,800;   32,200;    0,000;24,60000
 366,12;  -79,000;  -62,500;    0,000;-16,50000
 366,13;  132,300;   91,300;    0,000;41,00000
 366,14;  -30,100;  -62,000;    0,000;31,90000
 366,15;  -42,300;  -53,300;    0,000;11,00000
 366,16;  -32,800;  -49,900;    0,000;17,10000
 366,17;  153,200;  131,600;    0,000;21,60000
 366,18; -222,100; -169,700;    0,000;-52,40000
 366,19;  -64,200;  -70,800;    0,000; 6,60000
 366,21; -130,900; -132,700;    0,000; 1,80000
 366,22;   57,200;   46,700;    0,000;10,50000
 366,23;  -40,900;  -31,000;    0,000;-9,90000
 366,24;  171,900;  180,800;    0,000;-8,90000
 366,25;   16,600;   39,800;    0,000;-23,20000
 366,26;  -83,100; -124,000;    0,000;40,90000
 366,27; -151,100; -103,400;    0,000;-47,70000
 366,28;   11,300;   -6,800;    0,000;18,10000
 366,29;  -29,700;  -41,300;    0,000;11,60000
 366,31;  -60,200;  -74,500;    0,000;14,30000
 366,32;  -26,500;  -56,800;    0,000;30,30000
 366,33;  -83,500; -117,000;    0,000;33,50000
 366,34;  -80,900;  -46,500;    0,000;-34,40000
 366,35;  -98,000; -126,700;    0,000;28,70000
 366,36; -166,200; -114,000;    0,000;-52,20000
 366,37;   31,600;   19,600;    0,000;12,00000
 366,38; -230,600; -174,900;    0,000;-55,70000
 366,39;  114,000;  103,600;    0,000;10,40000
 366,40; -112,200;  -94,500;    0,000;-17,70000
 366,41;  -83,800;  -69,400;    0,000;-14,40000
 366,43;  137,500;  170,900;    0,000;-33,40000
 366,44;    7,100;    5,900;    0,000; 1,20000
 366,45;   78,400;  121,000;    0,000;-42,60000
 366,46; -173,400; -205,600;    0,000;32,20000
 366,47;   15,800;   28,100;    0,000;-12,30000
 366,48;   10,300;    4,700;    0,000; 5,60000
 366,49; -120,300;  -78,400;    0,000;-41,90000
 366,50;   55,900;   22,200;    0,000;33,70000
 366,51;  -28,500;  -11,700;    0,000;-16,80000
 366,52;   60,400;   15,800;    0,000;44,60000
 366,54; -206,700; -158,600;    0,000;-48,10000
 366,55;  -68,400;  -93,100;    0,000;24,70000
 366,56;   62,300;  110,500;    0,000;-48,20000
 366,57;   -9,700;  -30,500;    0,000;20,80000
 366,58; -169,200; -139,100;    0,000;-30,10000
 366,59; -102,600; -109,100;    0,000; 6,50000
 366,60;   -8,600;   35,700;    0,000;-44,30000
 366,61;  -21,200;  -32,300;    0,000;11,10000
 366,62;  -82,100;  -74,300;    0,000;-7,80000
 366,63;  -76,500;  -51,800;    0,000;-24,70000
 366,64;   94,500;  139,000;    0,000;-44,50000
 366,66;   36,500;   49,700;    0,000;-13,20000
 366,67;   28,400;   74,200;    0,000;-45,80000
 366,68;   76,600;   45,000;    0,000;31,60000
 366,69;  -72,900;  -13,900;    0,000;-59,00000
 366,70;   13,800;  -24,100;    0,000;37,90000
 366,71;  -24,400;  -27,700;    0,000; 3,30000
 366,72;  -62,000;  -57,300;    0,000;-4,70000
 366,73;  -66,800;  -88,900;    0,000;22,10000
 366,74; -128,600; -150,700;    0,000;22,10000
 366,75; -193,500; -217,700;    0,000;24,20000
 366,76;  -41,000;  -86,200;    0,000;45,20000
 366,78; -117,500;  -80,300;    0,000;-37,20000
 366,79;  103,000;   85,800;    0,000;17,20000
 366,80;   44,800;   47,600;    0,000;-2,80000
 366,81;  167,900;  197,700;    0,000;-29,80000
 366,82;  -63,500;  -59,100;    0,000;-4,40000
 366,83;   -6,600;  -18,800;    0,000;12,20000
 366,84; -177,200; -117,700;    0,000;-59,50000
 366,85;   59,100;   59,600;    0,000;-0,50000
 366,86; -206,000; -179,100;    0,000;-26,90000
 366,87;  -78,600;  -73,300;    0,000;-5,30000
 366,88; -210,000; -161,200;    0,000;-48,80000
 366,89;  147,900;  137,600;    0,000;10,30000
 366,91;    8,200;   56,300;    0,000;-48,10000
 366,92;  -91,400; -116,400;    0,000;25,00000
 366,93;  -37,100;   -6,900;    0,000;-30,20000
 366,94;   37,100;   49,500;    0,000;-12,40000
 366,95; -183,900; -180,800;    0,000;-3,10000
 366,96;  134,600;  111,400;    0,000;23,20000
 366,97; -119,500; -110,100;    0,000;-9,40000
 366,98;  128,700;  123,200;    0,000; 5,50000
 366,99;   27,000;   66,900;    0,000;-39,90000
 367,00;  130,700;  157,500;    0,000;-26,80000
 367,01;    0,000;    1,500;    0,000;-1,50000
 367,02;   -0,600;  -13,900;    0,000;13,30000
 367,04; -255,900; -220,900;    0,000;-35,00000
 367,05;  -67,300; -115,600;    0,000;48,30000
 367,06;  -64,400;  -38,600;    0,000;-25,80000
 367,07;  207,700;  201,400;    0,000; 6,30000
 367,08;  -44,600;  -10,100;    0,000;-34,50000
 367,09;   30,500;    9,300;    0,000;21,20000
 367,10; -207,700; -213,600;    0,000; 5,90000
 367,11;  168,900;  104,000;    0,000;64,90000
 367,12;   24,600;   58,100;    0,000;-33,50000
 367,13;  -10,800;   15,500;    0,000;-26,30000
 367,14; -137,900; -121,300;    0,000;-16,60000
 367,15;  155,900;  131,600;    0,000;24,30000
 367,16;  -68,300;  -31,400;    0,000;-36,90000
 367,18; -115,600; -143,400;    0,000;27,80000
 367,19; -216,000; -200,300;    0,000;-15,70000
 367,20; -161,600; -181,300;    0,000;19,70000
 367,21; -105,500;  -56,300;    0,000;-49,20000
 367,22;  105,300;   55,800;    0,000;49,50000
 367,23; -116,900;  -86,600;    0,000;-30,30000
 367,24;   69,300;   64,600;    0,000; 4,70000
 367,25;   12,800;   18,200;    0,000;-5,40000
 367,26;  -42,700;  -63,000;    0,000;20,30000
 367,27;  -94,700;  -73,500;    0,000;-21,20000
 367,28;  110,400;   72,900;    0,000;37,50000
 367,29;  -97,700;  -45,800;    0,000;-51,90000
 367,30;  -95,700; -101,700;    0,000; 6,00000
 367,32; -291,200; -249,800;    0,000;-41,40000
 367,33;   79,400;   74,700;    0,000; 4,70000
 367,34;  -67,500;  -11,900;    0,000;-55,60000
 367,35;  -13,400;  -34,700;    0,000;21,30000
 367,36; -100,800;  -80,300;    0,000;-20,50000
 367,37;  -11,000;  -25,100;    0,000;14,10000
 367,38; -144,700; -110,200;    0,000;-34,50000
 367,39;  250,200;  228,900;    0,000;21,30000
 367,40; -161,800; -152,200;    0,000;-9,60000
 367,41; -136,200; -147,500;    0,000;11,30000
 367,42; -259,800; -219,000;    0,000;-40,80000
 367,43; -162,800; -155,500;    0,000;-7,30000
 367,44; -101,600;  -69,800;    0,000;-31,80000
 367,45;  -81,600;  -95,100;    0,000;13,50000
 367,47; -138,400; -132,600;    0,000;-5,80000
 367,48; -123,300; -109,100;    0,000;-14,20000
 367,49;   22,800;   45,100;    0,000;-22,30000
 367,50;    9,700;  -33,200;    0,000;42,90000
 367,51; -129,100; -118,800;    0,000;-10,30000
 367,52;   -5,500;  -18,500;    0,000;13,00000
 367,53; -200,700; -159,300;    0,000;-41,40000
 367,54;  -11,500;  -19,800;    0,000; 8,30000
 367,55;   15,300;   69,000;    0,000;-53,70000
 367,56;  -40,000;    8,300;    0,000;-48,30000
 367,57; -237,500; -216,700;    0,000;-20,80000
 367,58;  -61,500;  -31,100;    0,000;-30,40000
 367,59; -126,900; -105,500;    0,000;-21,40000
 367,60;   -4,400;  -10,600;    0,000; 6,20000
 367,61; -165,800;  -97,200;    0,000;-68,60000
 367,62;  114,300;  110,800;    0,000; 3,50000
 367,64;  -79,100;  -66,800;    0,000;-12,30000
 367,65;   14,600;   54,700;    0,000;-40,10000
 367,66;  133,900;  159,600;    0,000;-25,70000
 367,67;  -78,900;  -73,700;    0,000;-5,20000
 367,68; -123,700; -104,000;    0,000;-19,70000
 367,69; -191,500; -226,100;    0,000;34,60000
 367,70;  192,700;  182,200;    0,000;10,50000
 367,71; -201,600; -244,100;    0,000;42,50000
 367,72; -183,100; -161,700;    0,000;-21,40000
 367,73;  -18,000;   17,200;    0,000;-35,20000
 367,74;  -22,900;   26,200;    0,000;-49,10000
 367,75;   56,800;   26,200;    0,000;30,60000
 367,76; -157,100; -157,600;    0,000; 0,50000
 367,77;   51,900;   15,600;    0,000;36,30000
 367,78; -117,500;  -81,800;    0,000;-35,70000
 367,79;  -55,400;  -37,400;    0,000;-18,00000
 367,81;    3,700;   63,000;    0,000;-59,30000
 367,82; -126,500; -152,500;    0,000;26,00000
 367,83;   32,400;   42,700;    0,000;-10,30000
 367,84;  -97,400; -112,500;    0,000;15,10000
 367,85; -102,200;  -67,000;    0,000;-35,20000
 367,86;  -73,700; -113,900;    0,000;40,20000
 367,87; -133,400;  -64,500;    0,000;-68,90000
 367,88;  -14,900;  -14,900;    0,000; 0,00000
 367,89;   -5,500;   36,900;    0,000;-42,40000
 367,90;  -88,700; -115,300;    0,000;26,60000
 367,91; -128,200; -130,200;    0,000; 2,00000
 367,92;  -62,500;  -79,100;    0,000;16,60000
 367,93;  -54,900;    6,600;    0,000;-61,50000
 367,94; -132,200; -116,100;    0,000;-16,10000
 367,95; -141,300;  -87,300;    0,000;-54,00000
 367,96;   89,000;   78,200;    0,000;10,80000
 367,97;   -1,400;   51,600;    0,000;-53,00000
 367,98;  -63,600;  -77,700;    0,000;14,10000
 368,00; -181,400; -150,900;    0,000;-30,50000
 368,01;   -4,500;   12,400;    0,000;-16,90000
 368,02;   43,000;   62,900;    0,000;-19,90000
 368,03;  -36,800;  -65,200;    0,000;28,40000
 368,04;  104,100;  133,900;    0,000;-29,80000
 368,05;  -83,300; -112,700;    0,000;29,40000
 368,06; -108,500;  -86,400;    0,000;-22,10000
 368,07; -124,400; -133,300;    0,000; 8,90000
 368,08;  -61,400;  -26,000;    0,000;-35,40000
 368,09;   16,200;   33,000;    0,000;-16,80000
 368,10; -219,700; -226,100;    0,000; 6,40000
 368,11;  -37,800;  -44,300;    0,000; 6,50000
 368,12; -143,500; -120,500;    0,000;-23,00000
 368,13; -218,400; -220,200;    0,000; 1,80000
 368,14;  -45,600;   26,600;    0,000;-72,20000
 368,15;  -18,700;  -73,400;    0,000;54,70000
 368,16;  -51,300;    4,800;    0,000;-56,10000
 368,17; -134,300; -143,700;    0,000; 9,40000
 368,18;  -87,100;  -43,900;    0,000;-43,20000
 368,19; -170,200; -165,600;    0,000;-4,60000
 368,21;   17,300;   43,600;    0,000;-26,30000
 368,22;  -73,800; -108,400;    0,000;34,60000
 368,23;  -89,900;  -45,800;    0,000;-44,10000
 368,24;  -50,400;  -61,400;    0,000;11,00000
 368,25;   61,700;   85,300;    0,000;-23,60000
 368,26;  106,100;   62,100;    0,000;44,00000
 368,27;   25,900;   55,800;    0,000;-29,90000
 368,28; -153,000; -135,400;    0,000;-17,60000
 368,29;  -56,600;  -32,300;    0,000;-24,30000
 368,30;   96,200;   88,800;    0,000; 7,40000
 368,31;  -34,600;  -22,600;    0,000;-12,00000
 368,32;  -68,200;  -74,400;    0,000; 6,20000
 368,33; -141,200;  -81,700;    0,000;-59,50000
 368,34; -145,500; -139,300;    0,000;-6,20000
 368,35;   66,200;   79,600;    0,000;-13,40000
 368,36;   -5,000;  -12,500;    0,000; 7,50000
 368,37; -106,100; -115,400;    0,000; 9,30000
 368,38;  -13,700;  -28,500;    0,000;14,80000
 368,39;  -27,400;  -38,500;    0,000;11,10000
 368,40;  -86,200; -113,700;    0,000;27,50000
 368,41;  -40,300;  -32,600;    0,000;-7,70000
 368,42;   69,200;    9,600;    0,000;59,60000
 368,43; -101,900;  -49,200;    0,000;-52,70000
 368,44; -107,200; -128,500;    0,000;21,30000
 368,46; -157,400; -103,300;    0,000;-54,10000
 368,47; -102,200; -110,200;    0,000; 8,00000
 368,48; -269,200; -236,800;    0,000;-32,40000
 368,49;    5,500;  -14,900;    0,000;20,40000
 368,50; -124,600;  -52,700;    0,000;-71,90000
 368,51;    9,000;   12,700;    0,000;-3,70000
 368,52;  -53,200;  -42,500;    0,000;-10,70000
 368,53; -127,800; -147,000;    0,000;19,20000
 368,54; -156,900; -134,500;    0,000;-22,40000
 368,55;   57,300;   44,500;    0,000;12,80000
 368,56;  -59,900;  -46,200;    0,000;-13,70000
 368,57; -114,800; -122,100;    0,000; 7,30000
 368,58;  -12,100;   33,500;    0,000;-45,60000
 368,59; -135,500; -174,600;    0,000;39,10000
 368,60;  -89,700;  -57,800;    0,000;-31,90000
 368,61;  -42,200;  -58,700;    0,000;16,50000
 368,62; -152,700; -109,700;    0,000;-43,00000
 368,63;  -65,000; -120,300;    0,000;55,30000
 368,64;  -66,700;  -54,800;    0,000;-11,90000
 368,65; -123,900; -129,700;    0,000; 5,80000
 368,66; -110,200;  -94,000;    0,000;-16,20000
 368,67;    9,800;   33,300;    0,000;-23,50000
 368,68; -308,500; -259,000;    0,000;-49,50000
 368,69;  -26,400;  -44,600;    0,000;18,20000
 368,70;  -55,100;  -43,200;    0,000;-11,90000
 368,71;  -39,400;  -52,000;    0,000;12,60000
 368,72; -193,700; -149,200;    0,000;-44,50000
 368,73;  -35,700;  -50,500;    0,000;14,80000
 368,74;  -76,800;  -59,300;    0,000;-17,50000
 368,76;   23,500;   16,700;    0,000; 6,80000
 368,77; -244,600; -225,300;    0,000;-19,30000
 368,78;   53,400;   13,200;    0,000;40,20000
 368,79; -136,800;  -62,300;    0,000;-74,50000
 368,80;  -65,200; -101,200;    0,000;36,00000
 368,81; -267,300; -239,500;    0,000;-27,80000
 368,82; -134,500; -116,600;    0,000;-17,90000
 368,83;   62,400;   96,000;    0,000;-33,60000
 368,84;  125,000;  100,400;    0,000;24,60000
 368,85; -211,900; -174,200;    0,000;-37,70000
 368,86; -122,400; -106,100;    0,000;-16,30000
 368,87;   -2,200;   11,600;    0,000;-13,80000
 368,88;  -46,700;  -63,800;    0,000;17,10000
 368,89; -166,700; -143,400;    0,000;-23,30000
 368,90;  -66,400;  -66,900;    0,000; 0,50000
 368,91;  -10,900;    7,000;    0,000;-17,90000
 368,92;  -32,300;  -39,800;    0,000; 7,50000
 368,93;  -39,000;    2,400;    0,000;-41,40000
 368,94;   92,200;   70,600;    0,000;21,60000
 368,95;  -74,800;  -22,100;    0,000;-52,70000
 368,96; -147,500; -178,300;    0,000;30,80000
 368,97;  -74,100;  -35,200;    0,000;-38,90000
 368,98;   92,500;   79,700;    0,000;12,80000
 368,99;   -8,600;  -29,100;    0,000;20,50000
 369,00;  -24,900;  -15,700;    0,000;-9,20000
 369,01; -114,800;  -77,300;    0,000;-37,50000
 369,02; -220,500; -212,900;    0,000;-7,60000
 369,03; -211,600; -159,200;    0,000;-52,40000
 369,04;   23,600;   33,900;    0,000;-10,30000
 369,05; -118,900;  -88,300;    0,000;-30,60000
 369,06; -168,000; -140,300;    0,000;-27,70000
 369,07; -273,100; -257,700;    0,000;-15,40000
 369,08;  101,100;   90,100;    0,000;11,00000
 369,09;  -22,300;  -21,100;    0,000;-1,20000
 369,10;  -51,900;  -92,200;    0,000;40,30000
 369,11; -209,200; -159,400;    0,000;-49,80000
 369,12;  133,500;  115,100;    0,000;18,40000
 369,13;  -96,700;  -40,500;    0,000;-56,20000
 369,14;  -93,500; -104,200;    0,000;10,70000
 369,15; -183,100; -174,400;    0,000;-8,70000
 369,16; -151,800; -142,400;    0,000;-9,40000
 369,17; -109,000;  -89,800;    0,000;-19,20000
 369,18;  104,200;   89,300;    0,000;14,90000
 369,20; -195,200; -177,500;    0,000;-17,70000
 369,21;  -65,800;  -50,400;    0,000;-15,40000
 369,22; -159,200; -191,300;    0,000;32,10000
 369,23; -138,500; -131,700;    0,000;-6,80000
 369,24; -146,800; -121,500;    0,000;-25,30000
 369,25; -201,600; -229,600;    0,000;28,00000
 369,26;   62,200;   62,200;    0,000; 0,00000
 369,27;  -71,300; -110,800;    0,000;39,50000
 369,28; -100,900;  -49,100;    0,000;-51,80000
 369,29;   10,300;   18,900;    0,000;-8,60000
 369,30; -101,400;  -92,500;    0,000;-8,90000
 369,31;  -55,500;  -50,600;    0,000;-4,90000
 369,32;  -84,000;  -26,300;    0,000;-57,70000
 369,33;   -4,500;   -3,700;    0,000;-0,80000
 369,34; -135,600; -103,200;    0,000;-32,40000
 369,35; -136,100; -128,400;    0,000;-7,70000
 369,36; -121,900; -101,000;    0,000;-20,90000
 369,37;  -38,800;  -58,800;    0,000;20,00000
 369,38;   10,700;   41,200;    0,000;-30,50000
 369,39;   -3,600;   16,700;    0,000;-20,30000
 369,40; -241,000; -229,500;    0,000;-11,50000
 369,41; -120,800; -127,900;    0,000; 7,10000
 369,42;  -43,300;   -9,200;    0,000;-34,10000
 369,43;  -88,100;  -79,600;    0,000;-8,50000
 369,44;  -41,900;  -62,100;    0,000;20,20000
 369,45; -110,000; -133,800;    0,000;23,80000
 369,46;  -94,700;  -66,200;    0,000;-28,50000
 369,47;  -73,500;  -63,100;    0,000;-10,40000
 369,48; -101,000;  -87,600;    0,000;-13,40000
 369,49; -183,600; -184,900;    0,000; 1,30000
 369,50; -170,800; -167,600;    0,000;-3,20000
 369,51;   38,400;   14,900;    0,000;23,50000
 369,52;   32,200;   93,000;    0,000;-60,80000
 369,53;  -81,900;  -96,500;    0,000;14,60000
 369,54; -122,800;  -78,100;    0,000;-44,70000
 369,55;  -43,600;  -62,400;    0,000;18,80000
 369,56;  -36,400;   13,100;    0,000;-49,50000
 369,57;   49,200;   24,500;    0,000;24,70000
 369,58; -140,900; -117,000;    0,000;-23,90000
 369,59;   39,300;   16,800;    0,000;22,50000
 369,60; -101,700;  -48,900;    0,000;-52,80000
 369,61;  -20,200;  -17,100;    0,000;-3,10000
 369,62;   25,700;   83,800;    0,000;-58,10000
 369,63;  -50,400;  -66,100;    0,000;15,70000
 369,64; -189,200; -135,000;    0,000;-54,20000
 369,65;    8,200;    9,700;    0,000;-1,50000
 369,66; -114,400; -120,300;    0,000; 5,90000
 369,67;    3,400;   14,000;    0,000;-10,60000
 369,68;   -7,700;   29,500;    0,000;-37,20000
 369,69;   62,500;   54,200;    0,000; 8,30000
 369,70; -185,100; -146,900;    0,000;-38,20000
 369,71;  -14,200;  -54,100;    0,000;39,90000
 369,72; -305,000; -266,800;    0,000;-38,20000
 369,73; -101,300; -138,300;    0,000;37,00000
 369,74; -145,100; -136,400;    0,000;-8,70000
 369,75;  -75,800;  -71,100;    0,000;-4,70000
 369,76; -210,300; -196,700;    0,000;-13,60000
 369,77;    1,100;  -12,800;    0,000;13,90000
 369,78;  -83,200;  -37,100;    0,000;-46,10000
 369,79;  -61,900;  -41,600;    0,000;-20,30000
 369,80;  -91,000;  -49,500;    0,000;-41,50000
 369,81;  -22,800;  -12,700;    0,000;-10,10000
 369,82;  -33,200;    1,500;    0,000;-34,70000
 369,83;  138,800;   79,500;    0,000;59,30000
 369,84;  -20,300;   25,500;    0,000;-45,80000
 369,85;  -46,000;  -20,200;    0,000;-25,80000
 369,86;   20,300;   34,800;    0,000;-14,50000
 369,87; -125,800;  -90,700;    0,000;-35,10000
 369,88; -169,900; -167,900;    0,000;-2,00000
 369,89;  -94,700;  -91,400;    0,000;-3,30000
 369,90;  -89,000;  -51,900;    0,000;-37,10000
 369,91;  -45,800;  -80,500;    0,000;34,70000
 369,92;   -0,400;  -25,200;    0,000;24,80000
 369,93;   44,200;   22,200;    0,000;22,00000
 369,94; -138,600;  -92,100;    0,000;-46,50000
 369,95;   10,500;  -16,200;    0,000;26,70000
 369,96;  -65,400;  -61,400;    0,000;-4,00000
 369,97;  -91,700; -122,900;    0,000;31,20000
 369,98;  -73,700;  -16,700;    0,000;-57,00000
 369,99; -149,300; -158,800;    0,000; 9,50000
 370,00;  -74,500;  -66,300;    0,000;-8,20000
 370,01;   40,700;   41,100;    0,000;-0,40000
 370,02;  -60,200;  -33,000;    0,000;-27,20000
 370,03;  163,100;  171,000;    0,000;-7,90000
 370,04;  -65,400;  -17,600;    0,000;-47,80000
 370,05; -154,900; -147,400;    0,000;-7,50000
 370,06;  -41,200;  -26,300;    0,000;-14,90000
 370,07;  -83,900;  -80,300;    0,000;-3,60000
 370,08;  -62,000;  -55,200;    0,000;-6,80000
 370,09;   63,000;   55,200;    0,000; 7,80000
 370,10;  -27,400;    3,400;    0,000;-30,80000
 370,11;   48,500;   36,000;    0,000;12,50000
 370,12;  -15,100;    4,700;    0,000;-19,80000
 370,13;   35,600;    5,200;    0,000;30,40000
 370,14;   25,000;   62,700;    0,000;-37,70000
 370,15;  -66,300;  -86,300;    0,000;20,00000
 370,16;   39,500;   96,300;    0,000;-56,80000
 370,17;  -62,200;  -75,200;    0,000;13,00000
 370,18; -155,100; -102,300;    0,000;-52,80000
 370,19;   -1,800;  -17,800;    0,000;16,00000
 370,20; -155,500; -145,600;    0,000;-9,90000
 370,21;   12,000;   23,400;    0,000;-11,40000
 370,22; -157,300; -131,500;    0,000;-25,80000
 370,23; -171,500; -175,800;    0,000; 4,30000
 370,24; -238,400; -232,300;    0,000;-6,10000
 370,25;  163,300;  155,500;    0,000; 7,80000
 370,25; -254,000; -215,400;    0,000;-38,60000
 370,26;  -27,400;  -27,400;    0,000; 0,00000
 370,27;   63,400;   72,200;    0,000;-8,80000
 370,28;  -18,200;    6,300;    0,000;-24,50000
 370,29;  -55,200;  -35,300;    0,000;-19,90000
 370,30;  -98,500; -117,100;    0,000;18,60000
 370,31;  -76,600;  -27,400;    0,000;-49,20000
 370,32;  143,600;  148,200;    0,000;-4,60000
 370,33; -149,200; -100,800;    0,000;-48,40000
 370,34;  101,100;  102,200;    0,000;-1,10000
 370,35;  -20,400;   16,200;    0,000;-36,60000
 370,36;   71,500;   76,400;    0,000;-4,90000
 370,37;  793,800;  786,800;    0,000; 7,00000
 370,38;  -27,700;  -41,300;    0,000;13,60000
 370,39; -182,300; -171,700;    0,000;-10,60000
 370,40; -126,800; -104,700;    0,000;-22,10000
 370,41;   55,400;   68,500;    0,000;-13,10000
 370,42;  -99,200;  -82,700;    0,000;-16,50000
 370,43; -146,200; -140,200;    0,000;-6,00000
 370,44;   89,900;   74,400;    0,000;15,50000
 370,45;  -85,100;  -48,000;    0,000;-37,10000
 370,46; -135,300; -105,200;    0,000;-30,10000
 370,47; -152,600; -135,700;    0,000;-16,90000
 370,48;  -40,100;  -35,500;    0,000;-4,60000
 370,49; -199,800; -173,400;    0,000;-26,40000
 370,50;  -80,900;  -78,700;    0,000;-2,20000
 370,51;  -99,500; -103,800;    0,000; 4,30000
 370,52;  109,600;  102,500;    0,000; 7,10000
 370,53; -116,700;  -76,800;    0,000;-39,90000
 370,54;  -71,500;  -89,700;    0,000;18,20000
 370,55;  -46,800;  -46,000;    0,000;-0,80000
 370,56;   76,600;   38,800;    0,000;37,80000
 370,57; -176,500; -137,100;    0,000;-39,40000
 370,58;  -46,800;  -57,000;    0,000;10,20000
 370,59;   56,600;   76,500;    0,000;-19,90000
 370,60; -135,800; -135,100;    0,000;-0,70000
 370,61;   52,900;   85,400;    0,000;-32,50000
 370,62;   25,500;   -0,700;    0,000;26,20000
 370,63; -158,600; -132,100;    0,000;-26,50000
 370,64; -166,000; -189,800;    0,000;23,80000
 370,65;  -30,100;  -10,000;    0,000;-20,10000
 370,66;   30,600;   16,100;    0,000;14,50000
 370,67; -171,400;  -84,800;    0,000;-86,60000
 370,67;   45,200;   24,200;    0,000;21,00000
 370,68; -137,200;  -97,800;    0,000;-39,40000
 370,69; -216,500; -251,500;    0,000;35,00000
 370,70; -313,800; -273,500;    0,000;-40,30000
 370,71;   54,200;   91,800;    0,000;-37,60000
 370,72;  -32,100;   -2,400;    0,000;-29,70000
 370,73;  -23,900;  -43,500;    0,000;19,60000
 370,74; -100,700;  -91,600;    0,000;-9,10000
 370,75;  -43,700;  -76,100;    0,000;32,40000
 370,76; -215,500; -184,200;    0,000;-31,30000
 370,77; -153,000; -183,000;    0,000;30,00000
 370,78; -231,300; -178,700;    0,000;-52,60000
 370,79;  119,700;  102,600;    0,000;17,10000
 370,80;  -97,900;  -77,000;    0,000;-20,90000
 370,81; -103,600;  -95,600;    0,000;-8,00000
 370,82; -134,800; -130,700;    0,000;-4,10000
 370,83;  -93,800; -146,000;    0,000;52,20000
 370,84; -275,300; -246,900;    0,000;-28,40000
 370,85;   -1,000;   21,000;    0,000;-22,00000
 370,86;  -45,900;   11,400;    0,000;-57,30000
 370,87; -243,100; -275,800;    0,000;32,70000
 370,88; -100,500;  -47,700;    0,000;-52,80000
 370,89;  -75,600;  -80,400;    0,000; 4,80000
 370,90;   37,700;   54,200;    0,000;-16,50000
 370,91;  -16,800;   -2,900;    0,000;-13,90000
 370,92; -152,100; -101,000;    0,000;-51,10000
 370,93; -154,500; -195,000;    0,000;40,50000
 370,94;  -39,300;   -1,800;    0,000;-37,50000
 370,95;  -48,400;  -26,000;    0,000;-22,40000
 370,95;   48,600;   83,500;    0,000;-34,90000
 370,96; -117,300; -129,900;    0,000;12,60000
 370,97;  -84,500;  -13,000;    0,000;-71,50000
 370,98;  -45,000;  -74,000;    0,000;29,00000
 370,99;  -56,100;    3,100;    0,000;-59,20000
 371,00;  -88,900;  -95,800;    0,000; 6,90000
 371,01; -151,400; -113,700;    0,000;-37,70000
 371,02;  212,200;  199,300;    0,000;12,90000
 371,03; -149,600; -116,200;    0,000;-33,40000
 371,04;  -59,800; -113,800;    0,000;54,00000
 371,05; -205,200; -175,800;    0,000;-29,40000
 371,06;   68,100;   31,300;    0,000;36,80000
 371,07;  -14,400;   45,300;    0,000;-59,70000
 371,08;  -37,500;  -47,500;    0,000;10,00000
 371,09; -233,800; -203,600;    0,000;-30,20000
 371,10;  134,600;   94,400;    0,000;40,20000
 371,11;  -37,700;   -5,300;    0,000;-32,40000
 371,12;  -98,400; -124,000;    0,000;25,60000
 371,13;  -77,800;  -88,700;    0,000;10,90000
 371,14;   74,100;   54,800;    0,000;19,30000
 371,15; -130,600; -111,800;    0,000;-18,80000
 371,16;  -42,600;  -39,200;    0,000;-3,40000
 371,17;  -58,800;  -35,000;    0,000;-23,80000
 371,17;  191,100;  179,100;    0,000;12,00000
 371,18;  -26,400;   10,300;    0,000;-36,70000
 371,19;  -99,900;  -86,700;    0,000;-13,20000
 371,20;  -49,300;  -26,300;    0,000;-23,00000
 371,21;  -35,700;  -28,400;    0,000;-7,30000
 371,22;  -45,300;  -30,000;    0,000;-15,30000
 371,23;  -29,200;  -66,400;    0,000;37,20000
 371,24; -226,200; -172,500;    0,000;-53,70000
 371,25;  -31,300;  -61,900;    0,000;30,60000
 371,26;  -89,300;  -77,600;    0,000;-11,70000
 371,27; -135,600; -137,700;    0,000; 2,10000
 371,28; -146,100; -117,800;    0,000;-28,30000
 371,29;  -32,800;  -47,900;    0,000;15,10000
 371,30;   31,000;   88,200;    0,000;-57,20000
 371,31;    1,500;   -4,700;    0,000; 6,20000
 371,32;    1,100;   51,700;    0,000;-50,60000
 371,33; -187,900; -177,400;    0,000;-10,50000
 371,34;  -25,100;   32,200;    0,000;-57,30000
 371,35; -110,900; -149,500;    0,000;38,60000
 371,36;   84,100;   92,700;    0,000;-8,60000
 371,36;  -82,500; -110,100;    0,000;27,60000
 371,37; -142,400;  -81,500;    0,000;-60,90000
 371,38; -185,600; -193,300;    0,000; 7,70000
 371,39; -164,300; -119,200;    0,000;-45,10000
 371,40;  -54,400;  -43,300;    0,000;-11,10000
 371,41; -137,700;  -82,900;    0,000;-54,80000
 371,42; -259,600; -292,300;    0,000;32,70000
 371,43; -173,900; -149,600;    0,000;-24,30000
 371,44;   67,200;   39,500;    0,000;27,70000
 371,45; -151,000;  -94,200;    0,000;-56,80000
 371,46;  -77,500;  -72,100;    0,000;-5,40000
 371,47;   87,200;   91,500;    0,000;-4,30000
 371,48;  -76,300;  -73,000;    0,000;-3,30000
 371,49;  -77,700;  -64,400;    0,000;-13,30000
 371,50;  -44,800;  -98,500;    0,000;53,70000
 371,51; -101,900;  -58,200;    0,000;-43,70000

