
Integration time [ms]:   1,000
Averaging Nr. [scans]: 1000
Smoothing Nr. [pixels]: 0
Data measured with spectrometer [name]: 1804345U2
Wave   ;Sample   ;Dark     ;Reference;Scope Corrected for Dark
[nm]   ;[counts] ;[counts] ;[counts] 

 318,09;   -1,894;  -26,700;    0,000;24,80600
 318,11;    0,008;    7,900;    0,000;-7,89200
 318,13;    3,553;   26,200;    0,000;-22,64700
 318,15;    0,649;  -33,700;    0,000;34,34900
 318,16;    1,895;  -27,000;    0,000;28,89500
 318,18;   -0,307;   24,600;    0,000;-24,90700
 318,20;    3,266;  -16,900;    0,000;20,16600
 318,22;   -1,309;  -18,900;    0,000;17,59100
 318,24;    2,119;  -15,000;    0,000;17,11900
 318,26;    0,578;   39,000;    0,000;-38,42200
 318,28;    1,540;    4,100;    0,000;-2,56000
 318,30;    0,320;    9,000;    0,000;-8,68000
 318,32;    0,527;   10,100;    0,000;-9,57300
 318,34;    0,153;   25,300;    0,000;-25,14700
 318,36;    1,805;   -3,300;    0,000; 5,10500
 318,38;    2,022;   49,500;    0,000;-47,47800
 318,40;    0,704;   29,500;    0,000;-28,79600
 318,42;    0,968;  -40,900;    0,000;41,86800
 318,43;    0,284;   -4,000;    0,000; 4,28400
 318,45;    2,317;    5,200;    0,000;-2,88300
 318,47;    2,426;  -25,900;    0,000;28,32600
 318,49;    1,299;   30,900;    0,000;-29,60100
 318,51;    2,381;   34,300;    0,000;-31,91900
 318,53;    0,933;   38,100;    0,000;-37,16700
 318,55;    1,014;   17,200;    0,000;-16,18600
 318,57;    0,622;   38,200;    0,000;-37,57800
 318,59;    3,247;   -6,200;    0,000; 9,44700
 318,61;    0,205;  -47,400;    0,000;47,60500
 318,63;   -0,255;  -25,700;    0,000;25,44500
 318,65;    0,631;  -44,500;    0,000;45,13100
 318,67;    2,472;  -17,100;    0,000;19,57200
 318,68;   -0,453;   15,900;    0,000;-16,35300
 318,70;    0,925;  -35,900;    0,000;36,82500
 318,72;    0,874;   45,600;    0,000;-44,72600
 318,74;    1,817;  -49,600;    0,000;51,41700
 318,76;    1,810;   74,200;    0,000;-72,39000
 318,78;    3,431;   49,800;    0,000;-46,36900
 318,80;    0,864;   18,600;    0,000;-17,73600
 318,82;    1,615;  -21,500;    0,000;23,11500
 318,84;    2,446;    2,200;    0,000; 0,24600
 318,86;    1,686;  -10,600;    0,000;12,28600
 318,88;    1,426;  -15,300;    0,000;16,72600
 318,90;    2,474;    4,100;    0,000;-1,62600
 318,92;    0,666;   21,300;    0,000;-20,63400
 318,93;   -0,210;   32,200;    0,000;-32,41000
 318,95;    0,182;   23,600;    0,000;-23,41800
 318,97;    1,817;  -13,400;    0,000;15,21700
 318,99;   -0,136;    0,900;    0,000;-1,03600
 319,01;    1,122;    1,800;    0,000;-0,67800
 319,03;    1,208;  -52,000;    0,000;53,20800
 319,05;    1,923;   15,000;    0,000;-13,07700
 319,07;   -2,883;  -60,900;    0,000;58,01700
 319,09;    4,201;   33,200;    0,000;-28,99900
 319,11;    0,495;  -23,600;    0,000;24,09500
 319,13;    2,688;   66,300;    0,000;-63,61200
 319,15;   -1,305;  -19,500;    0,000;18,19500
 319,17;    2,644;  -10,400;    0,000;13,04400
 319,18;   -2,560;  -15,500;    0,000;12,94000
 319,20;    0,727;   21,300;    0,000;-20,57300
 319,22;   -1,058;   15,200;    0,000;-16,25800
 319,24;    0,091;    7,400;    0,000;-7,30900
 319,26;    1,418;   42,200;    0,000;-40,78200
 319,28;    1,962;   15,100;    0,000;-13,13800
 319,30;    1,420;   42,600;    0,000;-41,18000
 319,32;    3,046;  -13,600;    0,000;16,64600
 319,34;    1,757;   34,500;    0,000;-32,74300
 319,36;    2,162;  -45,800;    0,000;47,96200
 319,38;    1,865;   15,500;    0,000;-13,63500
 319,40;    3,371;  -51,800;    0,000;55,17100
 319,41;    1,397;   10,900;    0,000;-9,50300
 319,43;    1,284;   14,500;    0,000;-13,21600
 319,45;    1,822;   47,600;    0,000;-45,77800
 319,47;    0,401;  -42,800;    0,000;43,20100
 319,49;   -0,034;  -46,700;    0,000;46,66600
 319,51;    1,955;  -12,900;    0,000;14,85500
 319,53;    1,507;  -16,400;    0,000;17,90700
 319,55;    1,437;   45,500;    0,000;-44,06300
 319,57;    0,117;  -14,900;    0,000;15,01700
 319,59;    3,845;   10,500;    0,000;-6,65500
 319,61;   -0,021;  -18,600;    0,000;18,57900
 319,62;    1,404;    0,500;    0,000; 0,90400
 319,64;    0,275;   33,600;    0,000;-33,32500
 319,66;    2,211;    3,600;    0,000;-1,38900
 319,68;    2,158;   17,100;    0,000;-14,94200
 319,70;    0,872;  -54,000;    0,000;54,87200
 319,72;    0,630;   35,000;    0,000;-34,37000
 319,74;    2,008;   21,300;    0,000;-19,29200
 319,76;   -0,878;  -25,200;    0,000;24,32200
 319,78;    0,264;  -12,500;    0,000;12,76400
 319,80;    0,626;  -15,900;    0,000;16,52600
 319,82;    2,676;    9,800;    0,000;-7,12400
 319,83;   -0,090;   -2,700;    0,000; 2,61000
 319,85;    1,355;  -38,900;    0,000;40,25500
 319,87;   -0,284;   -8,000;    0,000; 7,71600
 319,89;    2,752;  -15,800;    0,000;18,55200
 319,91;   -0,373;  -16,000;    0,000;15,62700
 319,93;    3,815;   39,800;    0,000;-35,98500
 319,95;    0,763;  -29,400;    0,000;30,16300
 319,97;    0,775;  -37,100;    0,000;37,87500
 319,99;   -0,209;  -34,600;    0,000;34,39100
 320,01;    3,288;   31,000;    0,000;-27,71200
 320,03;    0,787;  -41,500;    0,000;42,28700
 320,04;    4,647;   22,100;    0,000;-17,45300
 320,06;   -1,085;   23,700;    0,000;-24,78500
 320,08;    3,020;  -29,900;    0,000;32,92000
 320,10;    1,073;   79,800;    0,000;-78,72700
 320,12;    3,923;  -14,300;    0,000;18,22300
 320,14;    0,160;  -15,400;    0,000;15,56000
 320,16;    1,060;   21,100;    0,000;-20,04000
 320,18;   -1,239;   16,800;    0,000;-18,03900
 320,20;    1,538;  -26,600;    0,000;28,13800
 320,22;    2,997;  -16,000;    0,000;18,99700
 320,24;    2,954;  -40,100;    0,000;43,05400
 320,25;    0,123;   55,000;    0,000;-54,87700
 320,27;    1,497;   22,500;    0,000;-21,00300
 320,29;   -0,305;    3,600;    0,000;-3,90500
 320,31;    0,374;  -14,400;    0,000;14,77400
 320,33;   -0,593;   48,700;    0,000;-49,29300
 320,35;    1,823;   -5,700;    0,000; 7,52300
 320,37;    2,754;  -31,000;    0,000;33,75400
 320,39;    1,484;  -36,400;    0,000;37,88400
 320,41;    1,759;  -12,200;    0,000;13,95900
 320,43;    2,029;   -4,500;    0,000; 6,52900
 320,44;    1,953;  -20,800;    0,000;22,75300
 320,46;    3,182;   28,400;    0,000;-25,21800
 320,48;    1,264;    5,300;    0,000;-4,03600
 320,50;    3,937;   31,700;    0,000;-27,76300
 320,52;    3,691;  -27,300;    0,000;30,99100
 320,54;    2,400;   35,900;    0,000;-33,50000
 320,56;   -0,321;   21,100;    0,000;-21,42100
 320,58;    0,299;   80,600;    0,000;-80,30100
 320,60;   -1,411;  -32,500;    0,000;31,08900
 320,62;    1,450;  -71,300;    0,000;72,75000
 320,64;    0,500;  -17,500;    0,000;18,00000
 320,65;    1,881;  -38,600;    0,000;40,48100
 320,67;    0,738;  -30,800;    0,000;31,53800
 320,69;    3,124;   75,200;    0,000;-72,07600
 320,71;    3,036;   72,700;    0,000;-69,66400
 320,73;    4,209;   27,500;    0,000;-23,29100
 320,75;    1,797;   36,000;    0,000;-34,20300
 320,77;    4,472;  -16,200;    0,000;20,67200
 320,79;    5,587;  -31,200;    0,000;36,78700
 320,81;    4,669;  -20,800;    0,000;25,46900
 320,83;    1,755;   -2,700;    0,000; 4,45500
 320,84;    3,243;   79,600;    0,000;-76,35700
 320,86;    2,832;  -20,600;    0,000;23,43200
 320,88;    0,699;  -60,100;    0,000;60,79900
 320,90;    3,700;  -38,400;    0,000;42,10000
 320,92;    1,776;  -24,600;    0,000;26,37600
 320,94;    2,170;   21,100;    0,000;-18,93000
 320,96;    2,556;  -26,700;    0,000;29,25600
 320,98;    0,881;   14,000;    0,000;-13,11900
 321,00;    1,690;   -4,000;    0,000; 5,69000
 321,01;    0,846;   21,200;    0,000;-20,35400
 321,03;    2,001;   17,100;    0,000;-15,09900
 321,05;   -0,342;   31,700;    0,000;-32,04200
 321,07;    2,858;  -34,600;    0,000;37,45800
 321,09;    0,773;    2,100;    0,000;-1,32700
 321,11;    2,638;  -13,600;    0,000;16,23800
 321,13;    3,154;  -46,100;    0,000;49,25400
 321,15;    2,723;  -12,200;    0,000;14,92300
 321,17;    3,158;   67,600;    0,000;-64,44200
 321,19;    2,892;    0,800;    0,000; 2,09200
 321,20;    2,223;  -21,700;    0,000;23,92300
 321,22;    2,672;    1,700;    0,000; 0,97200
 321,24;    2,098;  -16,100;    0,000;18,19800
 321,26;    0,970;  -36,300;    0,000;37,27000
 321,28;    2,786;  -26,200;    0,000;28,98600
 321,30;    3,524;   18,900;    0,000;-15,37600
 321,32;    1,712;   18,400;    0,000;-16,68800
 321,34;    3,050;  -26,100;    0,000;29,15000
 321,36;   -0,476;   -5,600;    0,000; 5,12400
 321,37;    2,654;   61,400;    0,000;-58,74600
 321,39;    1,138;  -16,200;    0,000;17,33800
 321,41;    5,402;   15,200;    0,000;-9,79800
 321,43;    2,841;  -13,500;    0,000;16,34100
 321,45;    3,584;   37,200;    0,000;-33,61600
 321,47;    2,431;    1,100;    0,000; 1,33100
 321,49;    3,284;    9,900;    0,000;-6,61600
 321,51;    0,407;    1,200;    0,000;-0,79300
 321,53;    2,098;   31,000;    0,000;-28,90200
 321,54;    1,537;  -25,100;    0,000;26,63700
 321,56;    3,218;  -23,600;    0,000;26,81800
 321,58;    1,209;  -21,200;    0,000;22,40900
 321,60;    6,624;   38,400;    0,000;-31,77600
 321,62;    2,697;   26,900;    0,000;-24,20300
 321,64;    4,730;   -2,200;    0,000; 6,93000
 321,66;    0,225;   -2,100;    0,000; 2,32500
 321,68;    3,481;   45,500;    0,000;-42,01900
 321,70;    2,671;   26,300;    0,000;-23,62900
 321,71;    2,146;  -28,100;    0,000;30,24600
 321,73;    1,107;    7,900;    0,000;-6,79300
 321,75;    3,826;   -8,600;    0,000;12,42600
 321,77;    1,211;   -8,700;    0,000; 9,91100
 321,79;    3,352;    6,300;    0,000;-2,94800
 321,81;    1,851;   -1,700;    0,000; 3,55100
 321,83;    2,770;    5,100;    0,000;-2,33000
 321,85;    3,368;   26,300;    0,000;-22,93200
 321,87;    5,024;   -7,700;    0,000;12,72400
 321,88;    0,050;   11,700;    0,000;-11,65000
 321,90;    3,257;   28,700;    0,000;-25,44300
 321,92;    1,708;    8,600;    0,000;-6,89200
 321,94;    4,457;   16,800;    0,000;-12,34300
 321,96;    1,734;   14,800;    0,000;-13,06600
 321,98;    2,303;   54,900;    0,000;-52,59700
 322,00;    2,022;   54,800;    0,000;-52,77800
 322,02;    1,973;   -5,000;    0,000; 6,97300
 322,04;    1,074;  -65,300;    0,000;66,37400
 322,05;    3,441;  -21,900;    0,000;25,34100
 322,07;   -0,256;  -55,100;    0,000;54,84400
 322,09;    1,680;  -32,700;    0,000;34,38000
 322,11;    1,640;  -12,900;    0,000;14,54000
 322,13;    3,821;   10,100;    0,000;-6,27900
 322,15;    3,025;   58,800;    0,000;-55,77500
 322,17;    1,805;  -20,600;    0,000;22,40500
 322,19;    0,060;  -58,200;    0,000;58,26000
 322,20;    4,007;   -4,300;    0,000; 8,30700
 322,22;    2,220;   44,300;    0,000;-42,08000
 322,24;    2,113;  -13,500;    0,000;15,61300
 322,26;    0,947;  -23,000;    0,000;23,94700
 322,28;    5,469;  -13,700;    0,000;19,16900
 322,30;    0,779;    4,200;    0,000;-3,42100
 322,32;    2,501;  -53,300;    0,000;55,80100
 322,34;    2,791;  -46,700;    0,000;49,49100
 322,36;    3,847;    4,200;    0,000;-0,35300
 322,37;    0,914;    4,500;    0,000;-3,58600
 322,39;    3,149;   -9,800;    0,000;12,94900
 322,41;    2,588;   29,000;    0,000;-26,41200
 322,43;    5,137;    7,900;    0,000;-2,76300
 322,45;    1,916;   38,600;    0,000;-36,68400
 322,47;    2,751;   21,000;    0,000;-18,24900
 322,49;    0,870;  -64,900;    0,000;65,77000
 322,51;    3,460;  -11,300;    0,000;14,76000
 322,52;    1,582;  -38,600;    0,000;40,18200
 322,54;    3,561;  -17,700;    0,000;21,26100
 322,56;    1,184; -105,300;    0,000;106,48400
 322,58;    4,255;   -3,800;    0,000; 8,05500
 322,60;    3,754;  -48,500;    0,000;52,25400
 322,62;    2,456;   27,400;    0,000;-24,94400
 322,64;    1,870;   16,100;    0,000;-14,23000
 322,66;    5,083;   10,800;    0,000;-5,71700
 322,67;    2,867;   71,100;    0,000;-68,23300
 322,69;    4,883;   22,500;    0,000;-17,61700
 322,71;    2,877;  -24,700;    0,000;27,57700
 322,73;    4,640;   36,600;    0,000;-31,96000
 322,75;    3,765;   16,800;    0,000;-13,03500
 322,77;    3,608;   27,900;    0,000;-24,29200
 322,79;    2,406;   19,400;    0,000;-16,99400
 322,81;    3,010;   64,600;    0,000;-61,59000
 322,82;    1,944;  -55,800;    0,000;57,74400
 322,84;    3,545;   18,900;    0,000;-15,35500
 322,86;    3,446;  -30,800;    0,000;34,24600
 322,88;    4,413;   -8,300;    0,000;12,71300
 322,90;    2,280;   40,400;    0,000;-38,12000
 322,92;    2,992;   16,800;    0,000;-13,80800
 322,94;    2,410;  -56,400;    0,000;58,81000
 322,96;    3,279;  -15,100;    0,000;18,37900
 322,97;    3,569;   -1,200;    0,000; 4,76900
 322,99;    3,795;    1,300;    0,000; 2,49500
 323,01;    2,220;   -6,000;    0,000; 8,22000
 323,03;    3,192;   30,800;    0,000;-27,60800
 323,05;    0,396;   53,700;    0,000;-53,30400
 323,07;    4,717;    0,400;    0,000; 4,31700
 323,09;    3,746;    0,500;    0,000; 3,24600
 323,11;    2,645;   33,100;    0,000;-30,45500
 323,12;    4,989;  -11,500;    0,000;16,48900
 323,14;    3,111;  -29,800;    0,000;32,91100
 323,16;    1,227;   -6,900;    0,000; 8,12700
 323,18;    5,115;  -28,300;    0,000;33,41500
 323,20;    2,115;   23,400;    0,000;-21,28500
 323,22;    5,425;   30,700;    0,000;-25,27500
 323,24;    3,707;  -51,100;    0,000;54,80700
 323,25;    4,517;   10,800;    0,000;-6,28300
 323,27;    2,111;  -39,800;    0,000;41,91100
 323,29;    5,063;   32,600;    0,000;-27,53700
 323,31;    0,928;  -44,300;    0,000;45,22800
 323,33;    3,262;   17,900;    0,000;-14,63800
 323,35;    4,728;    3,100;    0,000; 1,62800
 323,37;    5,807;   -6,200;    0,000;12,00700
 323,39;    1,610;   34,800;    0,000;-33,19000
 323,40;    4,871;   -9,800;    0,000;14,67100
 323,42;    2,870;    3,500;    0,000;-0,63000
 323,44;    4,547;   55,500;    0,000;-50,95300
 323,46;    4,172;  -14,400;    0,000;18,57200
 323,48;    3,177;   24,700;    0,000;-21,52300
 323,50;    2,457;    4,700;    0,000;-2,24300
 323,52;    4,723;    9,500;    0,000;-4,77700
 323,53;    1,845;  -47,100;    0,000;48,94500
 323,55;    4,979;   -3,000;    0,000; 7,97900
 323,57;    5,485;   29,200;    0,000;-23,71500
 323,59;    3,634;  -28,100;    0,000;31,73400
 323,61;    4,783;   -0,400;    0,000; 5,18300
 323,63;    6,290;   64,100;    0,000;-57,81000
 323,65;    2,727;  -11,400;    0,000;14,12700
 323,67;    5,400;   44,900;    0,000;-39,50000
 323,68;    3,243;   31,500;    0,000;-28,25700
 323,70;    4,508;   26,000;    0,000;-21,49200
 323,72;    3,060;   -0,700;    0,000; 3,76000
 323,74;    4,833;  -23,000;    0,000;27,83300
 323,76;    4,268;  -46,300;    0,000;50,56800
 323,78;    6,295;   22,800;    0,000;-16,50500
 323,80;    2,235;   -4,500;    0,000; 6,73500
 323,81;    4,603;  -36,000;    0,000;40,60300
 323,83;    4,544;   23,700;    0,000;-19,15600
 323,85;    5,479;    6,000;    0,000;-0,52100
 323,87;    4,712;  -26,400;    0,000;31,11200
 323,89;    4,671;  -35,500;    0,000;40,17100
 323,91;    3,099;  -59,200;    0,000;62,29900
 323,93;    7,663;  -29,400;    0,000;37,06300
 323,94;    6,653;  -43,000;    0,000;49,65300
 323,96;    6,180;   17,400;    0,000;-11,22000
 323,98;    3,781;  -71,100;    0,000;74,88100
 324,00;    5,133;   -2,900;    0,000; 8,03300
 324,02;    4,955;  -20,400;    0,000;25,35500
 324,04;    7,987;   43,600;    0,000;-35,61300
 324,06;    3,286; -113,500;    0,000;116,78600
 324,07;    4,967;  -14,800;    0,000;19,76700
 324,09;    5,370;   19,200;    0,000;-13,83000
 324,11;    5,981;  -12,300;    0,000;18,28100
 324,13;    5,917;  -41,000;    0,000;46,91700
 324,15;    8,300;    0,000;    0,000; 8,30000
 324,17;    6,515;   26,900;    0,000;-20,38500
 324,19;   10,849;    3,200;    0,000; 7,64900
 324,20;   11,669;    1,700;    0,000; 9,96900
 324,22;   15,335;   22,600;    0,000;-7,26500
 324,24;    9,506;   -3,300;    0,000;12,80600
 324,26;   10,668;   -8,200;    0,000;18,86800
 324,28;   10,748;  -33,000;    0,000;43,74800
 324,30;   13,357;   21,700;    0,000;-8,34300
 324,32;    9,379;    0,200;    0,000; 9,17900
 324,33;   11,073;  -38,500;    0,000;49,57300
 324,35;    7,795;    6,500;    0,000; 1,29500
 324,37;   11,321;  -21,100;    0,000;32,42100
 324,39;    8,665;  -29,300;    0,000;37,96500
 324,41;   11,914;   13,600;    0,000;-1,68600
 324,43;   12,198;  -46,800;    0,000;58,99800
 324,45;   15,960;   39,800;    0,000;-23,84000
 324,46;   11,466;  -40,200;    0,000;51,66600
 324,48;   15,014;  -25,700;    0,000;40,71400
 324,50;   20,572;  -28,400;    0,000;48,97200
 324,52;   17,971;   65,700;    0,000;-47,72900
 324,54;   13,875;   23,200;    0,000;-9,32500
 324,56;   15,564;   51,700;    0,000;-36,13600
 324,58;   16,005;    3,000;    0,000;13,00500
 324,59;   19,396;    7,700;    0,000;11,69600
 324,61;   20,198;  -17,500;    0,000;37,69800
 324,63;   22,248;   11,000;    0,000;11,24800
 324,65;   17,944;  -51,300;    0,000;69,24400
 324,67;   22,161;   35,200;    0,000;-13,03900
 324,69;   21,392;  -11,200;    0,000;32,59200
 324,71;   22,699;   -8,100;    0,000;30,79900
 324,72;   16,942;  -51,400;    0,000;68,34200
 324,74;   22,239;   19,000;    0,000; 3,23900
 324,76;   20,429;    2,800;    0,000;17,62900
 324,78;   25,874;   -9,200;    0,000;35,07400
 324,80;   28,491;   32,400;    0,000;-3,90900
 324,82;   26,079;  -14,400;    0,000;40,47900
 324,83;   28,648;    6,700;    0,000;21,94800
 324,85;   39,289;  -37,800;    0,000;77,08900
 324,87;   45,139;  -44,600;    0,000;89,73900
 324,89;   52,574;    0,600;    0,000;51,97400
 324,91;   44,475;   64,600;    0,000;-20,12500
 324,93;   36,713;   -5,800;    0,000;42,51300
 324,95;   38,604;    9,300;    0,000;29,30400
 324,96;   34,160;   33,200;    0,000; 0,96000
 324,98;   36,157;   23,300;    0,000;12,85700
 325,00;   30,445;  -35,600;    0,000;66,04500
 325,02;   27,271;  -30,000;    0,000;57,27100
 325,04;   31,277;  -53,900;    0,000;85,17700
 325,06;   30,241;  -21,600;    0,000;51,84100
 325,07;   32,415;   32,800;    0,000;-0,38500
 325,09;   26,227;  -28,000;    0,000;54,22700
 325,11;   27,211;    9,300;    0,000;17,91100
 325,13;   30,558;  -51,400;    0,000;81,95800
 325,15;   34,235;   10,300;    0,000;23,93500
 325,17;   40,007;   32,900;    0,000; 7,10700
 325,19;   43,328;  -12,500;    0,000;55,82800
 325,20;   40,605;  -27,800;    0,000;68,40500
 325,22;   46,460;   16,500;    0,000;29,96000
 325,24;   53,179;    3,100;    0,000;50,07900
 325,26;   68,546;   16,500;    0,000;52,04600
 325,28;   77,713;   79,200;    0,000;-1,48700
 325,30;   92,084;   67,800;    0,000;24,28400
 325,31;  130,409;   10,600;    0,000;119,80900
 325,33;  222,284;   40,700;    0,000;181,58400
 325,35;  199,343;   24,500;    0,000;174,84300
 325,37;   76,629;    3,300;    0,000;73,32900
 325,39;   29,911;  -10,300;    0,000;40,21100
 325,41;   23,541;  -26,200;    0,000;49,74100
 325,42;   18,324;  -28,800;    0,000;47,12400
 325,44;   17,708;  -48,500;    0,000;66,20800
 325,46;   18,321;  -54,800;    0,000;73,12100
 325,48;   19,778;   27,500;    0,000;-7,72200
 325,50;   15,773;  -27,500;    0,000;43,27300
 325,52;   18,902;  -27,000;    0,000;45,90200
 325,54;   15,172;   -5,000;    0,000;20,17200
 325,55;   16,774;  -16,800;    0,000;33,57400
 325,57;   15,761;    8,800;    0,000; 6,96100
 325,59;   16,914;    1,000;    0,000;15,91400
 325,61;   14,391;   -3,100;    0,000;17,49100
 325,63;   17,877;   43,100;    0,000;-25,22300
 325,65;   17,566;   -7,400;    0,000;24,96600
 325,66;   15,925;  -45,200;    0,000;61,12500
 325,68;   17,124;  -30,300;    0,000;47,42400
 325,70;   18,331;   18,200;    0,000; 0,13100
 325,72;   21,400;    3,700;    0,000;17,70000
 325,74;   23,087;  -11,800;    0,000;34,88700
 325,76;   24,498;   23,900;    0,000; 0,59800
 325,77;   25,226;   -3,200;    0,000;28,42600
 325,79;   21,686;  -60,000;    0,000;81,68600
 325,81;   25,300;   12,600;    0,000;12,70000
 325,83;   23,618;  -12,900;    0,000;36,51800
 325,85;   29,139;    5,700;    0,000;23,43900
 325,87;   29,241;   15,200;    0,000;14,04100
 325,88;   35,964;   -6,400;    0,000;42,36400
 325,90;   40,162;  -35,800;    0,000;75,96200
 325,92;   50,155;   11,300;    0,000;38,85500
 325,94;   53,359;   -1,900;    0,000;55,25900
 325,96;   67,327;    5,400;    0,000;61,92700
 325,98;   81,920;  -16,600;    0,000;98,52000
 325,99;  117,314;   16,500;    0,000;100,81400
 326,01;  177,740;   27,900;    0,000;149,84000
 326,03;  317,800;    1,600;    0,000;316,20000
 326,05;  639,885;   37,200;    0,000;602,68500
 326,07; 1438,278;   19,800;    0,000;1418,47800
 326,09; 3038,980;  -19,600;    0,000;3058,58000
 326,10; 5607,513;    1,700;    0,000;5605,81300
 326,12; 8291,948;   16,300;    0,000;8275,64800
 326,14;10497,249;   14,400;    0,000;10482,84900
 326,16;15973,146;  -57,300;    0,000;16030,44600
 326,18;31900,716;    4,800;    0,000;31895,91600
 326,20;35451,118;   28,600;    0,000;35422,51800
 326,21;16146,036;   33,400;    0,000;16112,63600
 326,23; 3258,591;   19,100;    0,000;3239,49100
 326,25;  982,927;  -29,600;    0,000;1012,52700
 326,27;  511,596;   18,000;    0,000;493,59600
 326,29;  283,600;  -12,800;    0,000;296,40000
 326,31;  203,844;  -18,100;    0,000;221,94400
 326,32;  158,178;  -23,400;    0,000;181,57800
 326,34;  114,588;   -8,700;    0,000;123,28800
 326,36;   93,105;  -18,900;    0,000;112,00500
 326,38;   86,582;   26,100;    0,000;60,48200
 326,40;   66,799;  -77,700;    0,000;144,49900
 326,42;   56,262;  -12,700;    0,000;68,96200
 326,43;   49,188;   -1,700;    0,000;50,88800
 326,45;   41,804;    8,900;    0,000;32,90400
 326,47;   38,028;  -25,400;    0,000;63,42800
 326,49;   34,497;   28,400;    0,000; 6,09700
 326,51;   31,078;  -33,800;    0,000;64,87800
 326,53;   28,739;  -10,300;    0,000;39,03900
 326,54;   26,751;  -21,700;    0,000;48,45100
 326,56;   24,296;  -64,000;    0,000;88,29600
 326,58;   23,632;  -22,000;    0,000;45,63200
 326,60;   23,160;  -52,800;    0,000;75,96000
 326,62;   23,532;  -51,600;    0,000;75,13200
 326,64;   23,350;    5,500;    0,000;17,85000
 326,65;   20,935;  -29,900;    0,000;50,83500
 326,67;   20,575;  -56,400;    0,000;76,97500
 326,69;   21,561;  -73,800;    0,000;95,36100
 326,71;   22,882;  -30,500;    0,000;53,38200
 326,73;   21,130;    5,500;    0,000;15,63000
 326,74;   21,097;  -23,300;    0,000;44,39700
 326,76;   21,573;   -9,500;    0,000;31,07300
 326,78;   20,541;  -13,700;    0,000;34,24100
 326,80;   20,689;  -55,500;    0,000;76,18900
 326,82;   21,048;  -23,600;    0,000;44,64800
 326,84;   21,174;  -27,300;    0,000;48,47400
 326,85;   18,572;   -5,800;    0,000;24,37200
 326,87;   21,972;   12,000;    0,000; 9,97200
 326,89;   18,732;  -17,300;    0,000;36,03200
 326,91;   18,730;    8,600;    0,000;10,13000
 326,93;   21,712;    8,900;    0,000;12,81200
 326,95;   22,296;   31,000;    0,000;-8,70400
 326,96;   21,357;    7,400;    0,000;13,95700
 326,98;   24,081;  -46,200;    0,000;70,28100
 327,00;   26,110;  -42,300;    0,000;68,41000
 327,02;   24,108;   -3,300;    0,000;27,40800
 327,04;   27,863;  -53,900;    0,000;81,76300
 327,05;   28,351;  -16,000;    0,000;44,35100
 327,07;   27,348;  -75,200;    0,000;102,54800
 327,09;   32,593;  -37,600;    0,000;70,19300
 327,11;   35,894;    2,200;    0,000;33,69400
 327,13;   32,911;  -12,600;    0,000;45,51100
 327,15;   32,949;  -14,900;    0,000;47,84900
 327,16;   37,685;    0,900;    0,000;36,78500
 327,18;   34,608;  -28,400;    0,000;63,00800
 327,20;   35,510;  -56,900;    0,000;92,41000
 327,22;   31,186;  -28,500;    0,000;59,68600
 327,24;   31,893;    7,100;    0,000;24,79300
 327,25;   28,262;   27,900;    0,000; 0,36200
 327,27;   26,754;   22,300;    0,000; 4,45400
 327,29;   26,605;  -66,400;    0,000;93,00500
 327,31;   36,462;    7,700;    0,000;28,76200
 327,33;   42,219;   96,900;    0,000;-54,68100
 327,35;   45,238;  -61,400;    0,000;106,63800
 327,36;   34,824;  -20,600;    0,000;55,42400
 327,38;   32,437;   -0,800;    0,000;33,23700
 327,40;   31,779;   17,700;    0,000;14,07900
 327,42;   30,747;    4,000;    0,000;26,74700
 327,44;   25,313;  -34,500;    0,000;59,81300
 327,45;   30,545;   -0,600;    0,000;31,14500
 327,47;   31,813;   -5,500;    0,000;37,31300
 327,49;   38,854;  -59,400;    0,000;98,25400
 327,51;   30,414;  -66,400;    0,000;96,81400
 327,53;   24,913;  -10,300;    0,000;35,21300
 327,55;   22,841;  -14,500;    0,000;37,34100
 327,56;   25,117;  -46,200;    0,000;71,31700
 327,58;   25,916;  -26,400;    0,000;52,31600
 327,60;   29,845;  -55,300;    0,000;85,14500
 327,62;   26,142;  -12,800;    0,000;38,94200
 327,64;   24,853;   -6,600;    0,000;31,45300
 327,65;   19,513;  -24,400;    0,000;43,91300
 327,67;   19,846;  -47,300;    0,000;67,14600
 327,69;   24,707;  -10,300;    0,000;35,00700
 327,71;   28,222;   17,100;    0,000;11,12200
 327,73;   15,824;  -80,400;    0,000;96,22400
 327,74;   12,451;   11,300;    0,000; 1,15100
 327,76;   14,289;  -51,900;    0,000;66,18900
 327,78;   13,712;   -2,200;    0,000;15,91200
 327,80;   14,044;   -6,700;    0,000;20,74400
 327,82;   14,541;  -16,500;    0,000;31,04100
 327,84;   10,747;   -0,100;    0,000;10,84700
 327,85;   12,154;  -57,000;    0,000;69,15400
 327,87;   15,809;  -85,700;    0,000;101,50900
 327,89;   16,003;    5,200;    0,000;10,80300
 327,91;   13,648;  -35,800;    0,000;49,44800
 327,93;   13,018;   61,100;    0,000;-48,08200
 327,94;    9,652;  -28,900;    0,000;38,55200
 327,96;    9,627;   -4,900;    0,000;14,52700
 327,98;   11,552;  -44,500;    0,000;56,05200
 328,00;    9,368;  -29,700;    0,000;39,06800
 328,02;   10,442;   27,800;    0,000;-17,35800
 328,03;   10,457;  -10,500;    0,000;20,95700
 328,05;    7,663;   21,500;    0,000;-13,83700
 328,07;    6,758;  -15,000;    0,000;21,75800
 328,09;    8,381;  -84,100;    0,000;92,48100
 328,11;    9,035;  -62,800;    0,000;71,83500
 328,12;    7,663;   28,500;    0,000;-20,83700
 328,14;    9,820;  -30,500;    0,000;40,32000
 328,16;   11,488;   13,600;    0,000;-2,11200
 328,18;   11,500;   19,700;    0,000;-8,20000
 328,20;    8,476;  -38,400;    0,000;46,87600
 328,21;    8,320;  -42,300;    0,000;50,62000
 328,23;    8,266;  -14,300;    0,000;22,56600
 328,25;    9,814;   70,200;    0,000;-60,38600
 328,27;    4,401;  -63,000;    0,000;67,40100
 328,29;    7,356;  -38,800;    0,000;46,15600
 328,30;    5,239;   -5,200;    0,000;10,43900
 328,32;    8,215;   -0,500;    0,000; 8,71500
 328,34;    8,502;   31,900;    0,000;-23,39800
 328,36;    7,617;  -68,400;    0,000;76,01700
 328,38;    4,031;  -71,800;    0,000;75,83100
 328,40;    7,080;  -13,700;    0,000;20,78000
 328,41;    6,282;   -4,700;    0,000;10,98200
 328,43;    7,783;   49,300;    0,000;-41,51700
 328,45;    3,618;  -32,800;    0,000;36,41800
 328,47;    8,098;    7,300;    0,000; 0,79800
 328,49;    5,295;   12,200;    0,000;-6,90500
 328,50;    5,842;  -26,000;    0,000;31,84200
 328,52;    8,392;  -33,300;    0,000;41,69200
 328,54;    8,479;   39,300;    0,000;-30,82100
 328,56;    6,380;   -3,000;    0,000; 9,38000
 328,58;    6,361;    9,700;    0,000;-3,33900
 328,59;    4,753;   43,700;    0,000;-38,94700
 328,61;    5,354;   -4,200;    0,000; 9,55400
 328,63;    3,437;  -43,400;    0,000;46,83700
 328,65;    5,382;  -14,500;    0,000;19,88200
 328,67;    4,200;   39,100;    0,000;-34,90000
 328,68;    5,678;  -42,000;    0,000;47,67800
 328,70;    3,212;  -53,000;    0,000;56,21200
 328,72;    6,220;  -35,600;    0,000;41,82000
 328,74;    5,475;   56,700;    0,000;-51,22500
 328,76;    5,866;   83,900;    0,000;-78,03400
 328,77;    5,975;   22,300;    0,000;-16,32500
 328,79;    6,520;  -34,300;    0,000;40,82000
 328,81;    2,610; -121,900;    0,000;124,51000
 328,83;    5,392;  -17,400;    0,000;22,79200
 328,85;    0,869;  -61,100;    0,000;61,96900
 328,86;    4,472;  -31,500;    0,000;35,97200
 328,88;    3,465;  -80,900;    0,000;84,36500
 328,90;    4,944;   22,300;    0,000;-17,35600
 328,92;    4,447;  -48,400;    0,000;52,84700
 328,93;    5,868;   14,200;    0,000;-8,33200
 328,95;    2,279;  -32,400;    0,000;34,67900
 328,97;    3,919;  -59,300;    0,000;63,21900
 328,99;    2,039;   -8,000;    0,000;10,03900
 329,01;    6,042;    7,500;    0,000;-1,45800
 329,02;    2,627;  -89,900;    0,000;92,52700
 329,04;    3,389;  -10,100;    0,000;13,48900
 329,06;    3,443;  -17,500;    0,000;20,94300
 329,08;    5,549;   -1,700;    0,000; 7,24900
 329,10;    4,331;  -26,500;    0,000;30,83100
 329,11;    4,686;  -29,400;    0,000;34,08600
 329,13;    2,544;   23,700;    0,000;-21,15600
 329,15;    3,878;   -4,200;    0,000; 8,07800
 329,17;    2,066;   15,100;    0,000;-13,03400
 329,19;    4,121;  -14,300;    0,000;18,42100
 329,20;    4,587;   24,800;    0,000;-20,21300
 329,22;   -0,293;  -53,600;    0,000;53,30700
 329,24;    2,416;    1,400;    0,000; 1,01600
 329,26;    7,744;   12,100;    0,000;-4,35600
 329,28;    2,630;   21,900;    0,000;-19,27000
 329,29;    5,619;  -33,500;    0,000;39,11900
 329,31;    3,828;  -69,900;    0,000;73,72800
 329,33;    5,899;   61,200;    0,000;-55,30100
 329,35;    3,666;   53,500;    0,000;-49,83400
 329,37;    5,678;  -64,800;    0,000;70,47800
 329,38;    0,978;  -13,600;    0,000;14,57800
 329,40;    4,023;   12,400;    0,000;-8,37700
 329,42;    2,521;   -4,400;    0,000; 6,92100
 329,44;    4,616;  -48,600;    0,000;53,21600
 329,45;    2,812;  -17,400;    0,000;20,21200
 329,47;    3,794;   43,900;    0,000;-40,10600
 329,49;    2,333;  -50,800;    0,000;53,13300
 329,51;    4,071;  -29,800;    0,000;33,87100
 329,53;    0,078;  -31,200;    0,000;31,27800
 329,54;    5,297;   59,800;    0,000;-54,50300
 329,56;    2,679;   -7,700;    0,000;10,37900
 329,58;    3,763;  -43,300;    0,000;47,06300
 329,60;    0,994;   13,400;    0,000;-12,40600
 329,62;    2,211;   -1,800;    0,000; 4,01100
 329,63;    2,150;  -69,900;    0,000;72,05000
 329,65;    3,607;  -44,400;    0,000;48,00700
 329,67;    1,852;  -28,300;    0,000;30,15200
 329,69;    4,103;    9,200;    0,000;-5,09700
 329,70;    1,775;   63,200;    0,000;-61,42500
 329,72;    4,385;   61,000;    0,000;-56,61500
 329,74;    2,876;  -14,000;    0,000;16,87600
 329,76;    0,550;  -53,200;    0,000;53,75000
 329,78;    4,320;   -5,000;    0,000; 9,32000
 329,79;    2,645;   52,000;    0,000;-49,35500
 329,81;    5,098;   -3,000;    0,000; 8,09800
 329,83;    2,428;    5,500;    0,000;-3,07200
 329,85;    3,544;  -16,000;    0,000;19,54400
 329,87;    5,837;  101,600;    0,000;-95,76300
 329,88;    3,930;  -15,000;    0,000;18,93000
 329,90;    1,815;   11,900;    0,000;-10,08500
 329,92;    0,813;   -7,900;    0,000; 8,71300
 329,94;    0,954;  -29,900;    0,000;30,85400
 329,95;    0,645;   11,500;    0,000;-10,85500
 329,97;    0,537;   25,800;    0,000;-25,26300
 329,99;    3,114;   -0,600;    0,000; 3,71400
 330,01;    1,882;  -38,400;    0,000;40,28200
 330,03;    1,350;   27,200;    0,000;-25,85000
 330,04;    4,719;  -51,100;    0,000;55,81900
 330,06;   -0,086;  -18,700;    0,000;18,61400
 330,08;    1,265;  -23,800;    0,000;25,06500
 330,10;    3,719;  -35,000;    0,000;38,71900
 330,11;    0,261;  -50,000;    0,000;50,26100
 330,13;    1,458;   41,000;    0,000;-39,54200
 330,15;    4,929;   24,900;    0,000;-19,97100
 330,17;    3,734;   25,600;    0,000;-21,86600
 330,19;    3,799;  -20,900;    0,000;24,69900
 330,20;    3,343;  -10,200;    0,000;13,54300
 330,22;    2,366;  -82,400;    0,000;84,76600
 330,24;    2,338;  -64,800;    0,000;67,13800
 330,26;    3,227;  -51,100;    0,000;54,32700
 330,27;    2,817;  -20,300;    0,000;23,11700
 330,29;    4,973;  -71,200;    0,000;76,17300
 330,31;    0,959;   -5,900;    0,000; 6,85900
 330,33;    4,678;    1,200;    0,000; 3,47800
 330,35;    3,507;   12,000;    0,000;-8,49300
 330,36;    4,166;    8,000;    0,000;-3,83400
 330,38;    5,823;  -66,900;    0,000;72,72300
 330,40;    4,285;  -16,200;    0,000;20,48500
 330,42;    1,690;  -29,800;    0,000;31,49000
 330,43;    2,609;  -29,200;    0,000;31,80900
 330,45;    1,305;  -86,100;    0,000;87,40500
 330,47;    0,389;  -36,700;    0,000;37,08900
 330,49;    2,455;  -49,300;    0,000;51,75500
 330,51;    3,727;    4,200;    0,000;-0,47300
 330,52;    3,582;  -46,800;    0,000;50,38200
 330,54;    2,200;   14,000;    0,000;-11,80000
 330,56;   -0,826;  -60,200;    0,000;59,37400
 330,58;    2,399;  -49,000;    0,000;51,39900
 330,59;    3,657;  -47,700;    0,000;51,35700
 330,61;    4,172;  -41,700;    0,000;45,87200
 330,63;    0,080;  -17,500;    0,000;17,58000
 330,65;    3,044;    1,400;    0,000; 1,64400
 330,67;    0,858;  -45,700;    0,000;46,55800
 330,68;    1,833;  -49,100;    0,000;50,93300
 330,70;    2,601;   48,000;    0,000;-45,39900
 330,72;    3,471;   25,800;    0,000;-22,32900
 330,74;    1,323;  -41,400;    0,000;42,72300
 330,75;    1,835;  -20,200;    0,000;22,03500
 330,77;    0,834;   32,100;    0,000;-31,26600
 330,79;    3,328;  -53,100;    0,000;56,42800
 330,81;    0,235;  -24,600;    0,000;24,83500
 330,82;    2,688;  -24,200;    0,000;26,88800
 330,84;    1,749;  -22,500;    0,000;24,24900
 330,86;    1,725;  -39,600;    0,000;41,32500
 330,88;    1,849;  -13,700;    0,000;15,54900
 330,90;    2,666;  -57,200;    0,000;59,86600
 330,91;    0,946;   -9,100;    0,000;10,04600
 330,93;    4,097;  -30,600;    0,000;34,69700
 330,95;    1,226;  -47,400;    0,000;48,62600
 330,97;    2,955;  -22,700;    0,000;25,65500
 330,98;    1,716;  -38,500;    0,000;40,21600
 331,00;    3,988;   -6,200;    0,000;10,18800
 331,02;   -0,104;  -83,700;    0,000;83,59600
 331,04;    2,915;  -44,400;    0,000;47,31500
 331,05;    1,911;  -75,000;    0,000;76,91100
 331,07;    2,349;   -4,300;    0,000; 6,64900
 331,09;    1,236;  -33,600;    0,000;34,83600
 331,11;    3,501;   15,800;    0,000;-12,29900
 331,13;    0,447;  -12,300;    0,000;12,74700
 331,14;    2,968;  -44,900;    0,000;47,86800
 331,16;    4,160;   -6,300;    0,000;10,46000
 331,18;    1,883;    7,200;    0,000;-5,31700
 331,20;    2,927;  -51,800;    0,000;54,72700
 331,21;    2,022;    4,200;    0,000;-2,17800
 331,23;    2,220;    2,600;    0,000;-0,38000
 331,25;    4,162;  -34,900;    0,000;39,06200
 331,27;    1,148;  -29,500;    0,000;30,64800
 331,28;    1,993;  -10,400;    0,000;12,39300
 331,30;    2,722;  -11,100;    0,000;13,82200
 331,32;    3,658;    8,800;    0,000;-5,14200
 331,34;    2,727;  -32,800;    0,000;35,52700
 331,35;    1,709;  -22,300;    0,000;24,00900
 331,37;   -1,006;  -59,100;    0,000;58,09400
 331,39;    3,680;   -3,100;    0,000; 6,78000
 331,41;    0,420;  -31,200;    0,000;31,62000
 331,43;    2,139;  -30,000;    0,000;32,13900
 331,44;    2,550;  -64,200;    0,000;66,75000
 331,46;    3,879;  -25,700;    0,000;29,57900
 331,48;    3,682;  -40,000;    0,000;43,68200
 331,50;    4,400;  -23,100;    0,000;27,50000
 331,51;    2,779;   -7,600;    0,000;10,37900
 331,53;    3,936;  -15,000;    0,000;18,93600
 331,55;    2,616;   22,900;    0,000;-20,28400
 331,57;    3,206;   28,000;    0,000;-24,79400
 331,58;    4,640;  -16,700;    0,000;21,34000
 331,60;    6,354;  -15,000;    0,000;21,35400
 331,62;    4,080;  -30,800;    0,000;34,88000
 331,64;    4,081;   -6,200;    0,000;10,28100
 331,65;    3,019;    5,900;    0,000;-2,88100
 331,67;    4,127;   -1,100;    0,000; 5,22700
 331,69;    1,349;    6,400;    0,000;-5,05100
 331,71;    4,580;  -20,000;    0,000;24,58000
 331,72;   -0,749;   -4,200;    0,000; 3,45100
 331,74;    2,063;  -23,100;    0,000;25,16300
 331,76;    2,705;  -40,900;    0,000;43,60500
 331,78;    2,337;    7,600;    0,000;-5,26300
 331,79;    4,184;  -11,100;    0,000;15,28400
 331,81;    2,007;  -27,200;    0,000;29,20700
 331,83;    1,645;    4,700;    0,000;-3,05500
 331,85;    3,563;  -17,800;    0,000;21,36300
 331,86;    1,314;  -16,400;    0,000;17,71400
 331,88;    3,258;    0,200;    0,000; 3,05800
 331,90;    2,791;   14,300;    0,000;-11,50900
 331,92;    4,606;    5,900;    0,000;-1,29400
 331,94;    1,703;  -62,000;    0,000;63,70300
 331,95;    3,957;   28,500;    0,000;-24,54300
 331,97;    3,071;    4,100;    0,000;-1,02900
 331,99;    4,948;   23,600;    0,000;-18,65200
 332,01;   -0,519;  -84,800;    0,000;84,28100
 332,02;    4,019;   55,000;    0,000;-50,98100
 332,04;    1,264;   -8,100;    0,000; 9,36400
 332,06;    4,019;   71,200;    0,000;-67,18100
 332,08;    3,667;  -36,800;    0,000;40,46700
 332,09;    2,857;  -31,400;    0,000;34,25700
 332,11;    1,199;  -27,100;    0,000;28,29900
 332,13;    4,932;  -11,400;    0,000;16,33200
 332,15;   -3,188;  -15,300;    0,000;12,11200
 332,16;    3,398;  -28,100;    0,000;31,49800
 332,18;   -0,484;  -56,400;    0,000;55,91600
 332,20;    1,882;  -40,600;    0,000;42,48200
 332,22;    0,875;  -40,100;    0,000;40,97500
 332,23;    2,825;   50,200;    0,000;-47,37500
 332,25;    1,174;  -16,600;    0,000;17,77400
 332,27;    1,753;  -44,800;    0,000;46,55300
 332,29;   -0,681;  -19,500;    0,000;18,81900
 332,30;    3,606;  -12,600;    0,000;16,20600
 332,32;    3,072;  -16,600;    0,000;19,67200
 332,34;    2,818;   21,300;    0,000;-18,48200
 332,36;    2,760;   14,600;    0,000;-11,84000
 332,37;    2,849;   35,700;    0,000;-32,85100
 332,39;    3,923;   39,900;    0,000;-35,97700
 332,41;    5,824;  -49,000;    0,000;54,82400
 332,43;    0,357;    1,500;    0,000;-1,14300
 332,44;    5,086;   -4,100;    0,000; 9,18600
 332,46;    2,495;  -30,400;    0,000;32,89500
 332,48;    1,995;   15,000;    0,000;-13,00500
 332,50;    3,745;    2,300;    0,000; 1,44500
 332,51;    0,787;  -22,500;    0,000;23,28700
 332,53;   -0,322;  -61,500;    0,000;61,17800
 332,55;    2,797;  -13,100;    0,000;15,89700
 332,57;    0,445;   -7,000;    0,000; 7,44500
 332,58;    0,968;   -7,400;    0,000; 8,36800
 332,60;    1,594;    0,600;    0,000; 0,99400
 332,62;    1,783;    6,100;    0,000;-4,31700
 332,64;    5,591;   89,200;    0,000;-83,60900
 332,65;    2,824;  -34,800;    0,000;37,62400
 332,67;    0,993;  -19,500;    0,000;20,49300
 332,69;    3,658;   21,300;    0,000;-17,64200
 332,70;    1,406;  -15,000;    0,000;16,40600
 332,72;    1,087;  -49,300;    0,000;50,38700
 332,74;    2,583;   40,600;    0,000;-38,01700
 332,76;    2,787;   16,000;    0,000;-13,21300
 332,77;    1,394;  -25,000;    0,000;26,39400
 332,79;    3,354;  -55,700;    0,000;59,05400
 332,81;    1,869;  -27,000;    0,000;28,86900
 332,83;    3,661;   -9,700;    0,000;13,36100
 332,84;   -0,706;  -59,000;    0,000;58,29400
 332,86;    2,850;  -12,800;    0,000;15,65000
 332,88;    0,120;  -58,600;    0,000;58,72000
 332,90;    5,148;  -24,600;    0,000;29,74800
 332,91;    1,714;  -17,500;    0,000;19,21400
 332,93;    4,772;   41,900;    0,000;-37,12800
 332,95;    2,063;  -18,100;    0,000;20,16300
 332,97;    3,810;   26,000;    0,000;-22,19000
 332,98;   -1,742;  -73,500;    0,000;71,75800
 333,00;    2,210;    3,200;    0,000;-0,99000
 333,02;    2,842;  -18,600;    0,000;21,44200
 333,04;    4,328;    7,300;    0,000;-2,97200
 333,05;    0,071;  -48,400;    0,000;48,47100
 333,07;    2,313;  -22,200;    0,000;24,51300
 333,09;    3,457;   18,400;    0,000;-14,94300
 333,11;    4,560;   -2,700;    0,000; 7,26000
 333,12;    0,298;   26,100;    0,000;-25,80200
 333,14;    0,169;  -11,900;    0,000;12,06900
 333,16;    1,904;  -72,100;    0,000;74,00400
 333,17;    4,217;  -36,200;    0,000;40,41700
 333,19;    1,551;  -65,800;    0,000;67,35100
 333,21;    3,511;  -12,000;    0,000;15,51100
 333,23;    2,411;   24,900;    0,000;-22,48900
 333,24;    4,389;  -23,500;    0,000;27,88900
 333,26;   -0,194;   -1,500;    0,000; 1,30600
 333,28;    2,892;   17,700;    0,000;-14,80800
 333,30;    2,825;  -19,300;    0,000;22,12500
 333,31;    3,030;  -33,800;    0,000;36,83000
 333,33;    1,578;  -18,900;    0,000;20,47800
 333,35;    1,726;  -41,600;    0,000;43,32600
 333,37;   -1,191;  -32,000;    0,000;30,80900
 333,38;    1,743;  -70,400;    0,000;72,14300
 333,40;    1,173;  -62,600;    0,000;63,77300
 333,42;    4,134;  -31,500;    0,000;35,63400
 333,44;   -1,440;  -17,600;    0,000;16,16000
 333,45;    2,201;   30,700;    0,000;-28,49900
 333,47;   -0,696;   31,500;    0,000;-32,19600
 333,49;    2,773;  -21,200;    0,000;23,97300
 333,50;    1,546;   -7,100;    0,000; 8,64600
 333,52;    4,294;  -27,000;    0,000;31,29400
 333,54;   -1,629;  -93,600;    0,000;91,97100
 333,56;    1,387;   -5,800;    0,000; 7,18700
 333,57;    1,693;  -16,100;    0,000;17,79300
 333,59;    2,247;  -27,400;    0,000;29,64700
 333,61;    2,333;  -10,500;    0,000;12,83300
 333,63;    2,378;  -56,400;    0,000;58,77800
 333,64;    3,582;  -56,300;    0,000;59,88200
 333,66;    4,189;   38,100;    0,000;-33,91100
 333,68;    3,079;  -24,400;    0,000;27,47900
 333,70;    1,860;  -28,400;    0,000;30,26000
 333,71;    3,379;  -62,000;    0,000;65,37900
 333,73;    2,213;  -47,000;    0,000;49,21300
 333,75;    2,140;  -34,800;    0,000;36,94000
 333,76;    2,391;   -2,000;    0,000; 4,39100
 333,78;    2,102;  -91,600;    0,000;93,70200
 333,80;    2,695;  -10,400;    0,000;13,09500
 333,82;    0,804;  -21,400;    0,000;22,20400
 333,83;    3,452;   20,400;    0,000;-16,94800
 333,85;    1,537;  -33,400;    0,000;34,93700
 333,87;    4,197;   -3,700;    0,000; 7,89700
 333,89;    0,610;  -40,200;    0,000;40,81000
 333,90;    3,704;    4,200;    0,000;-0,49600
 333,92;   -0,393;  -20,400;    0,000;20,00700
 333,94;    5,255;    2,800;    0,000; 2,45500
 333,95;    2,952;  -21,500;    0,000;24,45200
 333,97;    3,878;  -34,700;    0,000;38,57800
 333,99;    3,203;  -51,100;    0,000;54,30300
 334,01;    2,639;   12,400;    0,000;-9,76100
 334,02;    3,778;  -41,500;    0,000;45,27800
 334,04;    0,560;  -49,700;    0,000;50,26000
 334,06;    0,968;  -10,600;    0,000;11,56800
 334,08;    2,722;    2,800;    0,000;-0,07800
 334,09;    3,319;   19,500;    0,000;-16,18100
 334,11;    1,800;  -31,100;    0,000;32,90000
 334,13;    2,803;  146,800;    0,000;-143,99700
 334,14;    3,012;   10,100;    0,000;-7,08800
 334,16;    0,018;  -50,600;    0,000;50,61800
 334,18;    0,713;  -43,900;    0,000;44,61300
 334,20;    1,538;   -7,200;    0,000; 8,73800
 334,21;    3,382;   -5,700;    0,000; 9,08200
 334,23;    2,101;  -13,000;    0,000;15,10100
 334,25;    3,583;  -37,800;    0,000;41,38300
 334,26;    1,453;  -18,000;    0,000;19,45300
 334,28;    4,499;  -42,100;    0,000;46,59900
 334,30;    2,563;  -69,700;    0,000;72,26300
 334,32;    0,429;  -39,100;    0,000;39,52900
 334,33;    1,183;  -68,700;    0,000;69,88300
 334,35;    2,459;  -22,600;    0,000;25,05900
 334,37;    1,573;  -47,900;    0,000;49,47300
 334,39;    3,495;  -52,800;    0,000;56,29500
 334,40;    0,447;  -29,800;    0,000;30,24700
 334,42;    2,533;  -10,300;    0,000;12,83300
 334,44;    0,896;  -66,800;    0,000;67,69600
 334,45;    3,446;  -15,000;    0,000;18,44600
 334,47;    1,788;  -63,400;    0,000;65,18800
 334,49;    3,136;   14,800;    0,000;-11,66400
 334,51;    1,522;   -4,400;    0,000; 5,92200
 334,52;    2,281;   42,300;    0,000;-40,01900
 334,54;    1,417;  -54,700;    0,000;56,11700
 334,56;    3,036;   54,200;    0,000;-51,16400
 334,57;    0,259;   15,900;    0,000;-15,64100
 334,59;    4,532;   -8,600;    0,000;13,13200
 334,61;    0,019;  -58,700;    0,000;58,71900
 334,63;    2,493;  -44,300;    0,000;46,79300
 334,64;   -0,178;   19,500;    0,000;-19,67800
 334,66;    2,026;    9,000;    0,000;-6,97400
 334,68;    0,917;  -15,100;    0,000;16,01700
 334,69;    1,080;  -68,600;    0,000;69,68000
 334,71;    1,781;   10,800;    0,000;-9,01900
 334,73;    0,710;  -52,800;    0,000;53,51000
 334,75;   -2,471;  -25,200;    0,000;22,72900
 334,76;    4,382;  -48,600;    0,000;52,98200
 334,78;    2,661;   74,600;    0,000;-71,93900
 334,80;    1,580;  -38,900;    0,000;40,48000
 334,81;    1,714;   44,400;    0,000;-42,68600
 334,83;    2,011;  -10,700;    0,000;12,71100
 334,85;    0,452;  -48,300;    0,000;48,75200
 334,87;    1,908;  -34,900;    0,000;36,80800
 334,88;    1,105;    9,200;    0,000;-8,09500
 334,90;    2,651;  -42,600;    0,000;45,25100
 334,92;    1,186;  -53,500;    0,000;54,68600
 334,93;    2,102;    0,900;    0,000; 1,20200
 334,95;    2,051;  -32,600;    0,000;34,65100
 334,97;    1,507;  -21,600;    0,000;23,10700
 334,99;    2,762;  -43,700;    0,000;46,46200
 335,00;    3,110;   42,900;    0,000;-39,79000
 335,02;    1,715;  -40,900;    0,000;42,61500
 335,04;    2,475;   13,400;    0,000;-10,92500
 335,05;   -0,007;  -53,800;    0,000;53,79300
 335,07;    0,738;   -3,000;    0,000; 3,73800
 335,09;    0,478;  -48,200;    0,000;48,67800
 335,11;    2,791;  -57,800;    0,000;60,59100
 335,12;    2,320;  -53,200;    0,000;55,52000
 335,14;    4,433;  -15,300;    0,000;19,73300
 335,16;    1,474;  -21,200;    0,000;22,67400
 335,17;    2,279;    3,600;    0,000;-1,32100
 335,19;    1,937;  -33,800;    0,000;35,73700
 335,21;    3,066;   59,600;    0,000;-56,53400
 335,23;   -0,111;   -0,200;    0,000; 0,08900
 335,24;    3,128;  -40,000;    0,000;43,12800
 335,26;    1,793;   -1,900;    0,000; 3,69300
 335,28;    4,169;   36,000;    0,000;-31,83100
 335,29;    1,789;   33,200;    0,000;-31,41100
 335,31;    3,193;  -33,600;    0,000;36,79300
 335,33;   -0,259;  -36,000;    0,000;35,74100
 335,34;    0,943;  -47,400;    0,000;48,34300
 335,36;    2,361;  -36,400;    0,000;38,76100
 335,38;    3,177;  -27,200;    0,000;30,37700
 335,40;   -1,299;  -55,700;    0,000;54,40100
 335,41;    1,195;  -13,000;    0,000;14,19500
 335,43;   -0,358;   -6,100;    0,000; 5,74200
 335,45;    1,707;  -36,800;    0,000;38,50700
 335,46;    1,262;  -14,200;    0,000;15,46200
 335,48;    0,950;  -66,100;    0,000;67,05000
 335,50;   -0,063;  -13,800;    0,000;13,73700
 335,52;    2,755;   40,600;    0,000;-37,84500
 335,53;   -0,654;  -16,600;    0,000;15,94600
 335,55;    5,093;   -4,100;    0,000; 9,19300
 335,57;    1,215;  -10,100;    0,000;11,31500
 335,58;    4,624;   16,900;    0,000;-12,27600
 335,60;   -9,615;  -17,600;    0,000; 7,98500
 335,62;   28,229;   -3,300;    0,000;31,52900
 335,63;   62,080;   13,500;    0,000;48,58000
 335,65;    3,282;   -5,900;    0,000; 9,18200
 335,67;    1,968;  -56,600;    0,000;58,56800
 335,69;    2,952;  -26,000;    0,000;28,95200
 335,70;    1,319;  -56,600;    0,000;57,91900
 335,72;    1,526;    1,700;    0,000;-0,17400
 335,74;    1,835;  -58,800;    0,000;60,63500
 335,75;    3,370;   34,900;    0,000;-31,53000
 335,77;    0,619;  -77,700;    0,000;78,31900
 335,79;    5,068;    3,500;    0,000; 1,56800
 335,80;    3,680;  -53,500;    0,000;57,18000
 335,82;    6,248;   42,800;    0,000;-36,55200
 335,84;    1,060;   -7,800;    0,000; 8,86000
 335,86;    4,794;   -4,900;    0,000; 9,69400
 335,87;    0,903;  -24,800;    0,000;25,70300
 335,89;    3,461;   32,900;    0,000;-29,43900
 335,91;    1,421;   -2,100;    0,000; 3,52100
 335,92;    5,420;   -7,600;    0,000;13,02000
 335,94;    1,449;  -37,300;    0,000;38,74900
 335,96;    3,428;  -26,400;    0,000;29,82800
 335,97;   -0,373;  -33,900;    0,000;33,52700
 335,99;    3,716;  -16,300;    0,000;20,01600
 336,01;    0,801;  -63,400;    0,000;64,20100
 336,03;    3,165;  -38,800;    0,000;41,96500
 336,04;   -0,538;  -42,900;    0,000;42,36200
 336,06;    1,114;  -11,000;    0,000;12,11400
 336,08;   -0,052;  -45,700;    0,000;45,64800
 336,09;    2,726;    9,800;    0,000;-7,07400
 336,11;    1,610;  -25,000;    0,000;26,61000
 336,13;    3,061;   19,000;    0,000;-15,93900
 336,14;   -1,274;  -26,400;    0,000;25,12600
 336,16;    0,783;   37,800;    0,000;-37,01700
 336,18;   -0,289;    1,600;    0,000;-1,88900
 336,19;    1,115;  -59,200;    0,000;60,31500
 336,21;    2,001;   -2,100;    0,000; 4,10100
 336,23;    1,864;  -65,100;    0,000;66,96400
 336,25;    0,560;  -41,400;    0,000;41,96000
 336,26;    4,575;  -33,800;    0,000;38,37500
 336,28;    1,704;  -39,400;    0,000;41,10400
 336,30;    1,123;   32,700;    0,000;-31,57700
 336,31;    1,089;  -39,000;    0,000;40,08900
 336,33;    2,017;   15,000;    0,000;-12,98300
 336,35;   -1,080;  -13,300;    0,000;12,22000
 336,36;    2,373;   -0,100;    0,000; 2,47300
 336,38;   -0,772;  -18,800;    0,000;18,02800
 336,40;    1,474;  -63,400;    0,000;64,87400
 336,41;   -1,229;  -46,600;    0,000;45,37100
 336,43;    1,427;   33,900;    0,000;-32,47300
 336,45;    0,664;  -16,900;    0,000;17,56400
 336,47;    3,388;    7,200;    0,000;-3,81200
 336,48;    0,493;  -11,000;    0,000;11,49300
 336,50;    0,377;  -46,800;    0,000;47,17700
 336,52;    2,679;   30,600;    0,000;-27,92100
 336,53;    1,815;  -41,100;    0,000;42,91500
 336,55;   -1,419;  -35,000;    0,000;33,58100
 336,57;    0,067;  -45,300;    0,000;45,36700
 336,58;    1,331;  -29,100;    0,000;30,43100
 336,60;    1,579;  -17,400;    0,000;18,97900
 336,62;    1,832;  -64,800;    0,000;66,63200
 336,63;    1,286;  -43,200;    0,000;44,48600
 336,65;    1,057;   -7,900;    0,000; 8,95700
 336,67;    2,423;  -34,800;    0,000;37,22300
 336,68;    1,525;  -45,400;    0,000;46,92500
 336,70;    2,237;  -25,500;    0,000;27,73700
 336,72;    1,616;   -6,000;    0,000; 7,61600
 336,74;    3,088;    2,600;    0,000; 0,48800
 336,75;    2,020;  -34,600;    0,000;36,62000
 336,77;    4,748;  -12,400;    0,000;17,14800
 336,79;   -1,023;  -32,100;    0,000;31,07700
 336,80;    4,041;  -11,800;    0,000;15,84100
 336,82;    0,701;  -35,300;    0,000;36,00100
 336,84;    2,659;   18,100;    0,000;-15,44100
 336,85;   -0,257;   -5,300;    0,000; 5,04300
 336,87;    5,347;   57,600;    0,000;-52,25300
 336,89;    0,468;   -9,400;    0,000; 9,86800
 336,90;    3,530;   27,000;    0,000;-23,47000
 336,92;    2,573;  -21,200;    0,000;23,77300
 336,94;    0,632;  -45,000;    0,000;45,63200
 336,95;    1,145;  -95,200;    0,000;96,34500
 336,97;    2,476;   38,900;    0,000;-36,42400
 336,99;    0,050;  -35,300;    0,000;35,35000
 337,00;    2,121;  -39,000;    0,000;41,12100
 337,02;    1,153;  -42,700;    0,000;43,85300
 337,04;    1,587;  -37,100;    0,000;38,68700
 337,06;    2,142;   73,200;    0,000;-71,05800
 337,07;    2,144;  -59,700;    0,000;61,84400
 337,09;    0,364;  -12,600;    0,000;12,96400
 337,11;    3,143;    2,900;    0,000; 0,24300
 337,12;    0,180;  -63,100;    0,000;63,28000
 337,14;    2,730;  -23,500;    0,000;26,23000
 337,16;    0,118;   16,300;    0,000;-16,18200
 337,17;    1,609;  -43,700;    0,000;45,30900
 337,19;    2,370;  -28,300;    0,000;30,67000
 337,21;    4,164;   10,500;    0,000;-6,33600
 337,22;    1,589;  -14,500;    0,000;16,08900
 337,24;    0,718;  -14,200;    0,000;14,91800
 337,26;   -0,196;  -38,300;    0,000;38,10400
 337,27;    2,763;    9,600;    0,000;-6,83700
 337,29;    0,183;   -6,800;    0,000; 6,98300
 337,31;    2,238;   51,100;    0,000;-48,86200
 337,32;    1,444;    9,000;    0,000;-7,55600
 337,34;    1,811;   17,800;    0,000;-15,98900
 337,36;    0,617;  -34,300;    0,000;34,91700
 337,37;    3,190;   39,300;    0,000;-36,11000
 337,39;    2,606;   55,000;    0,000;-52,39400
 337,41;    0,801;   -1,900;    0,000; 2,70100
 337,42;    0,042;  -97,600;    0,000;97,64200
 337,44;    2,707;  -49,900;    0,000;52,60700
 337,46;    3,510;   19,100;    0,000;-15,59000
 337,47;    2,971;   40,200;    0,000;-37,22900
 337,49;    1,541;   19,800;    0,000;-18,25900
 337,51;    3,156;  -35,000;    0,000;38,15600
 337,53;    0,600;  -40,800;    0,000;41,40000
 337,54;    2,921;  -12,900;    0,000;15,82100
 337,56;    1,439;  -27,600;    0,000;29,03900
 337,58;    3,988;  -16,100;    0,000;20,08800
 337,59;    1,849;  -19,400;    0,000;21,24900
 337,61;    2,688;  -40,400;    0,000;43,08800
 337,63;    0,139;  -12,200;    0,000;12,33900
 337,64;    4,158;  -23,800;    0,000;27,95800
 337,66;    0,836;  -19,600;    0,000;20,43600
 337,68;    2,052;  -52,700;    0,000;54,75200
 337,69;    1,016;  -13,800;    0,000;14,81600
 337,71;    2,736;  -29,300;    0,000;32,03600
 337,73;   -0,722;   -4,200;    0,000; 3,47800
 337,74;    1,480;  -37,800;    0,000;39,28000
 337,76;    0,094;   -3,200;    0,000; 3,29400
 337,78;    1,570;   42,100;    0,000;-40,53000
 337,79;    1,825;  -20,700;    0,000;22,52500
 337,81;    1,571;   88,200;    0,000;-86,62900
 337,83;    2,294;   -5,800;    0,000; 8,09400
 337,84;    0,905;  -43,500;    0,000;44,40500
 337,86;    0,041;   43,300;    0,000;-43,25900
 337,88;   -0,420;  -26,000;    0,000;25,58000
 337,89;    2,368;   12,800;    0,000;-10,43200
 337,91;    3,106;   36,200;    0,000;-33,09400
 337,93;    1,986;  -28,000;    0,000;29,98600
 337,94;    1,886;   29,800;    0,000;-27,91400
 337,96;    3,337;  -17,100;    0,000;20,43700
 337,98;    3,373;  -15,100;    0,000;18,47300
 337,99;    2,092;  -79,100;    0,000;81,19200
 338,01;    3,257;   16,100;    0,000;-12,84300
 338,03;    2,731;  -53,200;    0,000;55,93100
 338,04;    1,391;  -38,800;    0,000;40,19100
 338,06;    0,085;    1,200;    0,000;-1,11500
 338,08;    3,688;  -20,000;    0,000;23,68800
 338,09;    1,915;  -36,500;    0,000;38,41500
 338,11;    4,008;  -31,900;    0,000;35,90800
 338,13;    4,239;   24,100;    0,000;-19,86100
 338,14;    5,010;   29,000;    0,000;-23,99000
 338,16;    2,150;   29,900;    0,000;-27,75000
 338,18;    2,669;    2,300;    0,000; 0,36900
 338,19;   -0,163;    2,900;    0,000;-3,06300
 338,21;    3,446;  -93,500;    0,000;96,94600
 338,23;    1,541;  -30,700;    0,000;32,24100
 338,24;    4,472;  -58,100;    0,000;62,57200
 338,26;    2,060;  -22,700;    0,000;24,76000
 338,28;    4,695;    0,600;    0,000; 4,09500
 338,29;   -1,137;  -82,000;    0,000;80,86300
 338,31;    3,280;  -21,100;    0,000;24,38000
 338,33;    3,000;  -13,900;    0,000;16,90000
 338,34;    0,573;  -25,200;    0,000;25,77300
 338,36;    2,981;  -14,900;    0,000;17,88100
 338,38;    4,670;  -44,500;    0,000;49,17000
 338,39;    0,251;  -88,500;    0,000;88,75100
 338,41;    3,597;   50,600;    0,000;-47,00300
 338,43;    0,511;  -90,300;    0,000;90,81100
 338,44;    3,549;  -10,500;    0,000;14,04900
 338,46;    3,043;   -4,100;    0,000; 7,14300
 338,48;    1,589;  -96,800;    0,000;98,38900
 338,49;    1,328;  -17,100;    0,000;18,42800
 338,51;    3,219;  -25,800;    0,000;29,01900
 338,53;    3,811;   19,600;    0,000;-15,78900
 338,54;    0,382;  -71,100;    0,000;71,48200
 338,56;   -0,480;  -44,300;    0,000;43,82000
 338,57;    2,560;   21,100;    0,000;-18,54000
 338,59;    0,437;   27,800;    0,000;-27,36300
 338,61;    4,993;  -38,100;    0,000;43,09300
 338,62;   -1,811;  -51,200;    0,000;49,38900
 338,64;    2,494;  -62,000;    0,000;64,49400
 338,66;    1,656;   13,900;    0,000;-12,24400
 338,67;    3,118;   39,100;    0,000;-35,98200
 338,69;    2,186;   50,700;    0,000;-48,51400
 338,71;    3,694;  -64,700;    0,000;68,39400
 338,72;    1,486;  -45,600;    0,000;47,08600
 338,74;    4,072;   27,700;    0,000;-23,62800
 338,76;    4,821;    0,300;    0,000; 4,52100
 338,77;    2,504;  -13,200;    0,000;15,70400
 338,79;    3,404;  -27,600;    0,000;31,00400
 338,81;    1,970;  -26,700;    0,000;28,67000
 338,82;    1,633;  -40,700;    0,000;42,33300
 338,84;    5,850;   11,000;    0,000;-5,15000
 338,86;    2,578;  -16,400;    0,000;18,97800
 338,87;    3,228;  -14,600;    0,000;17,82800
 338,89;    0,465;  -26,000;    0,000;26,46500
 338,91;    2,654;  -34,900;    0,000;37,55400
 338,92;    4,060;    6,500;    0,000;-2,44000
 338,94;    4,515;  -12,400;    0,000;16,91500
 338,96;    2,108;  -21,300;    0,000;23,40800
 338,97;    4,075;   10,300;    0,000;-6,22500
 338,99;    5,564;   45,500;    0,000;-39,93600
 339,01;    5,075;    4,100;    0,000; 0,97500
 339,02;    0,530;  -35,000;    0,000;35,53000
 339,04;    5,551;   19,000;    0,000;-13,44900
 339,05;    2,611;  -57,100;    0,000;59,71100
 339,07;    4,528;  -27,700;    0,000;32,22800
 339,09;    3,965;  -15,500;    0,000;19,46500
 339,10;    3,132;  -26,900;    0,000;30,03200
 339,12;    2,736;  -45,600;    0,000;48,33600
 339,14;    3,526;    6,700;    0,000;-3,17400
 339,15;    3,097;   -1,900;    0,000; 4,99700
 339,17;    4,259;  -57,900;    0,000;62,15900
 339,19;    0,918;    8,300;    0,000;-7,38200
 339,20;    2,326;  -31,900;    0,000;34,22600
 339,22;    2,391;  -73,500;    0,000;75,89100
 339,24;    2,833;    3,200;    0,000;-0,36700
 339,25;    3,548;   58,400;    0,000;-54,85200
 339,27;    3,488;   20,200;    0,000;-16,71200
 339,29;    3,119;  -31,500;    0,000;34,61900
 339,30;    3,190;  -37,900;    0,000;41,09000
 339,32;    1,313;  -29,600;    0,000;30,91300
 339,33;    5,005;   36,900;    0,000;-31,89500
 339,35;    3,092;  -12,100;    0,000;15,19200
 339,37;    5,467;    4,700;    0,000; 0,76700
 339,38;    3,800;   -3,100;    0,000; 6,90000
 339,40;    5,767;  -25,400;    0,000;31,16700
 339,42;    4,579;  -28,000;    0,000;32,57900
 339,43;    5,722;  -26,000;    0,000;31,72200
 339,45;    5,383;   24,500;    0,000;-19,11700
 339,47;    5,891;    3,500;    0,000; 2,39100
 339,48;    0,991;  -55,100;    0,000;56,09100
 339,50;    3,043;    4,100;    0,000;-1,05700
 339,52;   -0,092;  -54,600;    0,000;54,50800
 339,53;    3,303;  -32,600;    0,000;35,90300
 339,55;    0,949;  -29,400;    0,000;30,34900
 339,57;    0,833;  -25,700;    0,000;26,53300
 339,58;    3,179;  -33,000;    0,000;36,17900
 339,60;    1,775;    3,200;    0,000;-1,42500
 339,61;    1,425;  150,300;    0,000;-148,87500
 339,63;    1,607;  -40,000;    0,000;41,60700
 339,65;    2,141;  -41,500;    0,000;43,64100
 339,66;    3,696;   -1,600;    0,000; 5,29600
 339,68;    0,436;  -19,400;    0,000;19,83600
 339,70;    2,976;  -22,500;    0,000;25,47600
 339,71;    1,135;  -12,000;    0,000;13,13500
 339,73;    3,262;  -65,400;    0,000;68,66200
 339,75;    1,856;  -60,800;    0,000;62,65600
 339,76;    2,113;  -16,200;    0,000;18,31300
 339,78;   -0,189;  -20,900;    0,000;20,71100
 339,79;    2,116;   71,000;    0,000;-68,88400
 339,81;    2,453;  -37,100;    0,000;39,55300
 339,83;    0,948;  -18,200;    0,000;19,14800
 339,84;    2,026;  -10,900;    0,000;12,92600
 339,86;    1,282;  -33,700;    0,000;34,98200
 339,88;    1,642;  -60,900;    0,000;62,54200
 339,89;    1,550;  -25,400;    0,000;26,95000
 339,91;    3,509;  -10,500;    0,000;14,00900
 339,93;    6,117;   92,800;    0,000;-86,68300
 339,94;    2,485;  -51,200;    0,000;53,68500
 339,96;    3,892;  -39,900;    0,000;43,79200
 339,98;    3,049;   11,800;    0,000;-8,75100
 339,99;    4,790;    1,100;    0,000; 3,69000
 340,01;    1,537;  -11,500;    0,000;13,03700
 340,02;    4,459;  -40,400;    0,000;44,85900
 340,04;    1,782;  -69,200;    0,000;70,98200
 340,06;    3,071;   -2,300;    0,000; 5,37100
 340,07;    2,086;  -72,600;    0,000;74,68600
 340,09;    0,962;  -29,700;    0,000;30,66200
 340,11;    1,875;  -50,700;    0,000;52,57500
 340,12;    3,006;  -32,500;    0,000;35,50600
 340,14;    3,650;   -9,900;    0,000;13,55000
 340,15;    2,134;    2,300;    0,000;-0,16600
 340,17;    3,199;  -66,700;    0,000;69,89900
 340,19;    5,253;  -13,600;    0,000;18,85300
 340,20;    3,557;  -12,300;    0,000;15,85700
 340,22;    5,579;    6,100;    0,000;-0,52100
 340,24;    4,385;  -51,700;    0,000;56,08500
 340,25;    7,116;  -16,200;    0,000;23,31600
 340,27;    7,378;  -25,600;    0,000;32,97800
 340,29;   14,853;   33,800;    0,000;-18,94700
 340,30;   17,816;  -82,400;    0,000;100,21600
 340,32;   35,291;  -45,700;    0,000;80,99100
 340,33;   68,491;  -41,000;    0,000;109,49100
 340,35;  138,487;  -57,800;    0,000;196,28700
 340,37;  260,930;   27,000;    0,000;233,93000
 340,38;  459,380;   -3,700;    0,000;463,08000
 340,40;  669,263;  -15,300;    0,000;684,56300
 340,42;  998,114;   25,900;    0,000;972,21400
 340,43; 2010,184;   -8,200;    0,000;2018,38400
 340,45; 2657,122;   -6,200;    0,000;2663,32200
 340,46; 1629,973;  -14,200;    0,000;1644,17300
 340,48;  379,070;  -48,200;    0,000;427,27000
 340,50;   99,571;   10,600;    0,000;88,97100
 340,51;   53,575;  -23,500;    0,000;77,07500
 340,53;   34,848;  -34,000;    0,000;68,84800
 340,55;   20,747;  -51,200;    0,000;71,94700
 340,56;   16,072;  -16,200;    0,000;32,27200
 340,58;   12,238;   38,900;    0,000;-26,66200
 340,60;   11,083;  -37,700;    0,000;48,78300
 340,61;   10,301;  -50,200;    0,000;60,50100
 340,63;    9,972;  -30,100;    0,000;40,07200
 340,64;    9,292;   24,400;    0,000;-15,10800
 340,66;    6,183;  -29,400;    0,000;35,58300
 340,68;    6,935;   20,200;    0,000;-13,26500
 340,69;    2,533;   36,600;    0,000;-34,06700
 340,71;    4,807;   -0,500;    0,000; 5,30700
 340,73;    3,424;  -52,900;    0,000;56,32400
 340,74;    5,407;  -49,600;    0,000;55,00700
 340,76;    3,627;  -25,500;    0,000;29,12700
 340,77;    4,950;  -10,000;    0,000;14,95000
 340,79;    3,973;   13,100;    0,000;-9,12700
 340,81;    5,833;  -29,400;    0,000;35,23300
 340,82;    4,026;   17,700;    0,000;-13,67400
 340,84;    4,878;   -2,900;    0,000; 7,77800
 340,86;    3,934;  -43,800;    0,000;47,73400
 340,87;    4,868;   34,000;    0,000;-29,13200
 340,89;    2,865;  -38,800;    0,000;41,66500
 340,90;    5,970;  -37,100;    0,000;43,07000
 340,92;    3,996;  -40,700;    0,000;44,69600
 340,94;    4,734;  -26,800;    0,000;31,53400
 340,95;    3,041;  -41,900;    0,000;44,94100
 340,97;    2,503;  -68,300;    0,000;70,80300
 340,98;    1,625;   20,000;    0,000;-18,37500
 341,00;    4,345;  -48,800;    0,000;53,14500
 341,02;    2,149;    0,000;    0,000; 2,14900
 341,03;    2,199;  -50,000;    0,000;52,19900
 341,05;    2,302;  -80,600;    0,000;82,90200
 341,07;    2,268;    6,400;    0,000;-4,13200
 341,08;   -1,332;  -34,700;    0,000;33,36800
 341,10;    2,850;   -4,700;    0,000; 7,55000
 341,11;    2,373;  -61,800;    0,000;64,17300
 341,13;    4,402;  -32,600;    0,000;37,00200
 341,15;    2,131;  -19,100;    0,000;21,23100
 341,16;    3,226;   13,600;    0,000;-10,37400
 341,18;    2,201;  -21,100;    0,000;23,30100
 341,20;    1,883;  -13,300;    0,000;15,18300
 341,21;    4,028;  -27,400;    0,000;31,42800
 341,23;    1,750;  -24,600;    0,000;26,35000
 341,24;    3,444;  -58,700;    0,000;62,14400
 341,26;    2,288;    9,600;    0,000;-7,31200
 341,28;    0,951;   -6,900;    0,000; 7,85100
 341,29;    5,833;  -13,700;    0,000;19,53300
 341,31;    2,232;  -37,800;    0,000;40,03200
 341,32;    1,071;  -40,700;    0,000;41,77100
 341,34;    2,352;  -35,000;    0,000;37,35200
 341,36;    2,434;  -11,400;    0,000;13,83400
 341,37;    1,045;  -35,300;    0,000;36,34500
 341,39;    4,410;  -49,300;    0,000;53,71000
 341,41;    1,716;  -61,000;    0,000;62,71600
 341,42;    5,609;  -51,100;    0,000;56,70900
 341,44;    3,024;   41,500;    0,000;-38,47600
 341,45;    4,686;   -9,000;    0,000;13,68600
 341,47;    3,676;  -62,200;    0,000;65,87600
 341,49;    3,890;  -22,400;    0,000;26,29000
 341,50;    1,726;  -48,800;    0,000;50,52600
 341,52;    4,499;   -8,300;    0,000;12,79900
 341,53;    4,042;  -26,500;    0,000;30,54200
 341,55;    2,396;   95,100;    0,000;-92,70400
 341,57;    1,527;   16,400;    0,000;-14,87300
 341,58;    2,817;  -42,400;    0,000;45,21700
 341,60;   -1,138;  -74,000;    0,000;72,86200
 341,61;    3,814;  -25,100;    0,000;28,91400
 341,63;    2,750;   11,100;    0,000;-8,35000
 341,65;    4,817;  -25,300;    0,000;30,11700
 341,66;    3,683;  -38,000;    0,000;41,68300
 341,68;    3,306;  -19,500;    0,000;22,80600
 341,70;    1,088;   -6,900;    0,000; 7,98800
 341,71;    3,442;  -20,900;    0,000;24,34200
 341,73;    2,357;  -24,600;    0,000;26,95700
 341,74;    3,304;  -10,800;    0,000;14,10400
 341,76;    2,485;    6,600;    0,000;-4,11500
 341,78;    4,030;   56,900;    0,000;-52,87000
 341,79;    0,169;  -58,600;    0,000;58,76900
 341,81;    6,004;   28,300;    0,000;-22,29600
 341,82;    3,056;   26,700;    0,000;-23,64400
 341,84;    2,504;  -58,600;    0,000;61,10400
 341,86;    4,589;  -86,600;    0,000;91,18900
 341,87;    2,705;   16,000;    0,000;-13,29500
 341,89;    1,239;    4,900;    0,000;-3,66100
 341,90;    3,822;    3,000;    0,000; 0,82200
 341,92;    1,681;   -4,100;    0,000; 5,78100
 341,94;    2,827;    6,000;    0,000;-3,17300
 341,95;    4,129;  -24,900;    0,000;29,02900
 341,97;    1,693;    9,400;    0,000;-7,70700
 341,98;    1,240;  -39,300;    0,000;40,54000
 342,00;    1,777;    3,000;    0,000;-1,22300
 342,02;    1,408;    1,300;    0,000; 0,10800
 342,03;    2,424;    5,900;    0,000;-3,47600
 342,05;   -0,046;  -35,000;    0,000;34,95400
 342,06;    2,259;  -50,400;    0,000;52,65900
 342,08;    0,270;  -16,700;    0,000;16,97000
 342,10;    2,246;    2,400;    0,000;-0,15400
 342,11;    0,968;  -10,100;    0,000;11,06800
 342,13;    2,089;  -67,200;    0,000;69,28900
 342,15;   -0,056;  -18,400;    0,000;18,34400
 342,16;    2,451;  -47,000;    0,000;49,45100
 342,18;    1,023;  -38,200;    0,000;39,22300
 342,19;    2,989;    5,500;    0,000;-2,51100
 342,21;    0,814;    2,300;    0,000;-1,48600
 342,23;    2,983;  -29,400;    0,000;32,38300
 342,24;    2,370;    1,100;    0,000; 1,27000
 342,26;    3,197;  -26,700;    0,000;29,89700
 342,27;    3,349;   -2,700;    0,000; 6,04900
 342,29;    1,424;  -95,400;    0,000;96,82400
 342,31;    4,148;   26,500;    0,000;-22,35200
 342,32;    0,914;   -3,400;    0,000; 4,31400
 342,34;    0,940;  -14,700;    0,000;15,64000
 342,35;    4,282;  -31,200;    0,000;35,48200
 342,37;    1,464;  -32,700;    0,000;34,16400
 342,39;    3,062;   -9,100;    0,000;12,16200
 342,40;    1,704;  -74,600;    0,000;76,30400
 342,42;    4,139;    8,600;    0,000;-4,46100
 342,43;    0,603;   81,200;    0,000;-80,59700
 342,45;    2,268;   17,900;    0,000;-15,63200
 342,46;    2,590;   35,300;    0,000;-32,71000
 342,48;    0,341;  -62,200;    0,000;62,54100
 342,50;    2,005;   23,600;    0,000;-21,59500
 342,51;    2,163;   -3,600;    0,000; 5,76300
 342,53;   -1,341;  -39,600;    0,000;38,25900
 342,54;    1,299;  -45,400;    0,000;46,69900
 342,56;    0,974;   -6,100;    0,000; 7,07400
 342,58;    1,386;   -3,700;    0,000; 5,08600
 342,59;    0,244;  -40,400;    0,000;40,64400
 342,61;    1,655;   -0,900;    0,000; 2,55500
 342,62;    1,919;  -37,500;    0,000;39,41900
 342,64;    2,750;  -44,000;    0,000;46,75000
 342,66;    0,280;  -47,600;    0,000;47,88000
 342,67;    0,789;  -21,200;    0,000;21,98900
 342,69;    2,327;  -34,900;    0,000;37,22700
 342,70;    2,910;   61,200;    0,000;-58,29000
 342,72;    0,795;  -28,700;    0,000;29,49500
 342,74;   -0,360;  -15,900;    0,000;15,54000
 342,75;    3,973;    4,400;    0,000;-0,42700
 342,77;    1,761;    6,200;    0,000;-4,43900
 342,78;    0,744;  -42,100;    0,000;42,84400
 342,80;    0,318;  -31,200;    0,000;31,51800
 342,82;    0,568;  -28,500;    0,000;29,06800
 342,83;    2,100;  -46,700;    0,000;48,80000
 342,85;    1,488;   -7,700;    0,000; 9,18800
 342,86;    2,665;   17,000;    0,000;-14,33500
 342,88;    0,059;   24,600;    0,000;-24,54100
 342,90;    4,656;  -31,500;    0,000;36,15600
 342,91;    0,198;  -57,300;    0,000;57,49800
 342,93;    2,855;   29,600;    0,000;-26,74500
 342,94;    1,356;  -51,000;    0,000;52,35600
 342,96;    2,253;  -51,900;    0,000;54,15300
 342,97;    0,656;  -64,000;    0,000;64,65600
 342,99;    3,576;   41,900;    0,000;-38,32400
 343,01;    0,290;  -13,300;    0,000;13,59000
 343,02;    2,012;  -26,600;    0,000;28,61200
 343,04;    2,496;  -15,100;    0,000;17,59600
 343,05;    3,266;   11,100;    0,000;-7,83400
 343,07;    0,591;  -25,500;    0,000;26,09100
 343,09;    3,349;  -60,300;    0,000;63,64900
 343,10;    0,528;  -58,800;    0,000;59,32800
 343,12;    0,364;    2,000;    0,000;-1,63600
 343,13;    0,761;    4,600;    0,000;-3,83900
 343,15;    2,887;  -35,100;    0,000;37,98700
 343,17;    1,184;    2,300;    0,000;-1,11600
 343,18;    2,968;  -22,900;    0,000;25,86800
 343,20;    0,225;  -18,900;    0,000;19,12500
 343,21;    2,005;  -17,200;    0,000;19,20500
 343,23;    2,564;   -1,500;    0,000; 4,06400
 343,24;    3,282;    6,700;    0,000;-3,41800
 343,26;    1,590;  -67,100;    0,000;68,69000
 343,28;    1,152;   -5,100;    0,000; 6,25200
 343,29;    0,815;  -11,700;    0,000;12,51500
 343,31;    3,957;   32,900;    0,000;-28,94300
 343,32;    0,534;  -16,000;    0,000;16,53400
 343,34;    3,358;  -52,200;    0,000;55,55800
 343,36;    0,536;  -21,000;    0,000;21,53600
 343,37;    0,902;  -87,100;    0,000;88,00200
 343,39;   -0,617;    2,200;    0,000;-2,81700
 343,40;    0,046;   23,300;    0,000;-23,25400
 343,42;    1,036;   -9,300;    0,000;10,33600
 343,43;    2,097;  -44,700;    0,000;46,79700
 343,45;    1,309;   -1,900;    0,000; 3,20900
 343,47;    4,095;  -33,200;    0,000;37,29500
 343,48;    0,859;  -24,700;    0,000;25,55900
 343,50;    1,781;  -12,800;    0,000;14,58100
 343,51;    1,755;  -26,500;    0,000;28,25500
 343,53;    2,929;  -48,800;    0,000;51,72900
 343,54;   -0,473;   -3,400;    0,000; 2,92700
 343,56;    2,821;   28,200;    0,000;-25,37900
 343,58;   -0,475;  -24,800;    0,000;24,32500
 343,59;    3,211;  -11,300;    0,000;14,51100
 343,61;    1,140;  -40,300;    0,000;41,44000
 343,62;    1,194;    4,300;    0,000;-3,10600
 343,64;    1,914;  -15,600;    0,000;17,51400
 343,66;    1,511;  -13,300;    0,000;14,81100
 343,67;    1,705;  -21,700;    0,000;23,40500
 343,69;    1,139;    9,600;    0,000;-8,46100
 343,70;    2,126;   -9,100;    0,000;11,22600
 343,72;    1,036;    8,800;    0,000;-7,76400
 343,73;    0,460;  -47,000;    0,000;47,46000
 343,75;    3,478;   13,800;    0,000;-10,32200
 343,77;    0,693;  -25,800;    0,000;26,49300
 343,78;    0,298;  -42,400;    0,000;42,69800
 343,80;   -0,848;  -56,600;    0,000;55,75200
 343,81;    2,575;  -40,000;    0,000;42,57500
 343,83;    2,821;   27,200;    0,000;-24,37900
 343,84;    3,416;   21,800;    0,000;-18,38400
 343,86;    1,447;   -0,100;    0,000; 1,54700
 343,88;    2,076;   54,400;    0,000;-52,32400
 343,89;    0,021;  -28,800;    0,000;28,82100
 343,91;    3,058;   12,800;    0,000;-9,74200
 343,92;    1,561;   -0,600;    0,000; 2,16100
 343,94;    2,048;  -10,800;    0,000;12,84800
 343,95;    2,620;   -0,700;    0,000; 3,32000
 343,97;    4,189;  -74,200;    0,000;78,38900
 343,99;    1,762;  -52,300;    0,000;54,06200
 344,00;    3,315;    2,900;    0,000; 0,41500
 344,02;    1,754;  -22,000;    0,000;23,75400
 344,03;    2,677;   12,300;    0,000;-9,62300
 344,05;    1,598;  -55,000;    0,000;56,59800
 344,06;    2,819;  -21,400;    0,000;24,21900
 344,08;    0,490;    7,400;    0,000;-6,91000
 344,10;    3,216;    8,400;    0,000;-5,18400
 344,11;    0,872;  -13,400;    0,000;14,27200
 344,13;    3,090;    6,700;    0,000;-3,61000
 344,14;    0,179;   24,600;    0,000;-24,42100
 344,16;    2,266;  -58,900;    0,000;61,16600
 344,17;    0,824;   24,400;    0,000;-23,57600
 344,19;    3,072;  -29,300;    0,000;32,37200
 344,21;    4,281;   -9,500;    0,000;13,78100
 344,22;    2,771;   -9,100;    0,000;11,87100
 344,24;    1,544;    6,000;    0,000;-4,45600
 344,25;    2,793;  -21,000;    0,000;23,79300
 344,27;    3,214;  -14,800;    0,000;18,01400
 344,28;    1,329;  -58,700;    0,000;60,02900
 344,30;    1,297;  -27,500;    0,000;28,79700
 344,32;    4,096;   49,100;    0,000;-45,00400
 344,33;    1,835;   -1,700;    0,000; 3,53500
 344,35;   -0,085;  -14,500;    0,000;14,41500
 344,36;    3,284;  -19,800;    0,000;23,08400
 344,38;    3,267;  -10,300;    0,000;13,56700
 344,39;    0,382;  -12,300;    0,000;12,68200
 344,41;    2,945;   55,500;    0,000;-52,55500
 344,43;    3,826;  -52,700;    0,000;56,52600
 344,44;    1,774;    1,900;    0,000;-0,12600
 344,46;    0,642;  -59,400;    0,000;60,04200
 344,47;    4,852;  -17,000;    0,000;21,85200
 344,49;    2,948;   26,400;    0,000;-23,45200
 344,50;    0,966;  -41,800;    0,000;42,76600
 344,52;    4,261;   40,100;    0,000;-35,83900
 344,53;    3,341;  -22,800;    0,000;26,14100
 344,55;    3,120;   63,000;    0,000;-59,88000
 344,57;    3,679;   35,800;    0,000;-32,12100
 344,58;    0,605;  -67,900;    0,000;68,50500
 344,60;    3,568;   25,800;    0,000;-22,23200
 344,61;    0,650;   -4,700;    0,000; 5,35000
 344,63;    3,039;   58,600;    0,000;-55,56100
 344,64;    1,133;   50,700;    0,000;-49,56700
 344,66;    4,950;    6,600;    0,000;-1,65000
 344,67;    0,047;    1,400;    0,000;-1,35300
 344,69;    3,764;   47,300;    0,000;-43,53600
 344,71;    2,825;  -35,100;    0,000;37,92500
 344,72;    0,532;   -4,700;    0,000; 5,23200
 344,74;    3,474;  -29,600;    0,000;33,07400
 344,75;    1,737;   33,200;    0,000;-31,46300
 344,77;    2,064;  -40,200;    0,000;42,26400
 344,78;    2,166;   23,300;    0,000;-21,13400
 344,80;    1,924;   -1,900;    0,000; 3,82400
 344,82;    4,176;   -5,600;    0,000; 9,77600
 344,83;    1,459;  -14,900;    0,000;16,35900
 344,85;    2,662;   -4,100;    0,000; 6,76200
 344,86;    1,756;  -37,700;    0,000;39,45600
 344,88;    2,707;  -26,300;    0,000;29,00700
 344,89;    1,923;  -16,800;    0,000;18,72300
 344,91;    3,898;  -58,200;    0,000;62,09800
 344,92;    2,611;   34,500;    0,000;-31,88900
 344,94;    3,448;  -26,300;    0,000;29,74800
 344,96;    2,946;   21,900;    0,000;-18,95400
 344,97;    3,942;   13,200;    0,000;-9,25800
 344,99;    2,710;   19,300;    0,000;-16,59000
 345,00;    1,282;   61,400;    0,000;-60,11800
 345,02;    1,557;   30,800;    0,000;-29,24300
 345,03;    5,637;  -56,700;    0,000;62,33700
 345,05;    2,958;  -47,700;    0,000;50,65800
 345,06;    1,823;   27,000;    0,000;-25,17700
 345,08;    3,225;  -69,100;    0,000;72,32500
 345,10;    2,022;  -32,400;    0,000;34,42200
 345,11;    3,055;  -64,500;    0,000;67,55500
 345,13;    1,450;  -52,000;    0,000;53,45000
 345,14;    4,724;  -32,700;    0,000;37,42400
 345,16;    1,928;  -97,700;    0,000;99,62800
 345,17;    4,984;  -24,400;    0,000;29,38400
 345,19;    3,566;  -12,500;    0,000;16,06600
 345,20;    4,219;  -12,300;    0,000;16,51900
 345,22;    4,984;  -16,500;    0,000;21,48400
 345,23;    3,544;  -14,500;    0,000;18,04400
 345,25;    3,346;    7,200;    0,000;-3,85400
 345,27;    4,545;  -37,800;    0,000;42,34500
 345,28;    3,847;    4,200;    0,000;-0,35300
 345,30;    6,225;  -31,900;    0,000;38,12500
 345,31;    7,057;   35,200;    0,000;-28,14300
 345,33;    4,745;   29,400;    0,000;-24,65500
 345,34;    5,096;  -16,400;    0,000;21,49600
 345,36;    3,474;  -40,400;    0,000;43,87400
 345,37;    6,151;  -55,300;    0,000;61,45100
 345,39;    5,695;  -28,900;    0,000;34,59500
 345,41;    3,756;   31,300;    0,000;-27,54400
 345,42;    4,119;  -58,000;    0,000;62,11900
 345,44;    5,308;  -21,200;    0,000;26,50800
 345,45;    3,177;  -48,700;    0,000;51,87700
 345,47;    6,299;  -10,200;    0,000;16,49900
 345,48;    3,573;  -12,900;    0,000;16,47300
 345,50;    5,427;  -11,900;    0,000;17,32700
 345,51;    2,819;  -75,000;    0,000;77,81900
 345,53;    5,512;   17,500;    0,000;-11,98800
 345,54;    3,700;   12,200;    0,000;-8,50000
 345,56;    5,284;   12,000;    0,000;-6,71600
 345,58;    4,357;  -29,200;    0,000;33,55700
 345,59;    5,029;  -82,800;    0,000;87,82900
 345,61;    5,672;  -36,900;    0,000;42,57200
 345,62;    5,785;  -51,800;    0,000;57,58500
 345,64;    2,630;  -63,500;    0,000;66,13000
 345,65;    7,088;   -4,700;    0,000;11,78800
 345,67;    5,051;  -34,400;    0,000;39,45100
 345,68;    5,107;  -17,000;    0,000;22,10700
 345,70;    3,182;  -93,000;    0,000;96,18200
 345,71;    4,090;  -40,600;    0,000;44,69000
 345,73;    6,630;  -19,900;    0,000;26,53000
 345,75;    5,388;  -34,400;    0,000;39,78800
 345,76;    4,845;  106,300;    0,000;-101,45500
 345,78;    4,859;  -19,600;    0,000;24,45900
 345,79;    3,450;  -40,200;    0,000;43,65000
 345,81;    5,154;   27,700;    0,000;-22,54600
 345,82;    4,660;    0,500;    0,000; 4,16000
 345,84;    7,466;   60,500;    0,000;-53,03400
 345,85;    2,921;  -45,600;    0,000;48,52100
 345,87;    5,919;    2,700;    0,000; 3,21900
 345,88;    1,594;  -44,700;    0,000;46,29400
 345,90;    3,743;  -18,900;    0,000;22,64300
 345,91;    3,100;  -56,300;    0,000;59,40000
 345,93;    5,379;  -25,300;    0,000;30,67900
 345,95;    2,437;  -24,500;    0,000;26,93700
 345,96;    4,368;   -6,500;    0,000;10,86800
 345,98;    2,016;  -52,700;    0,000;54,71600
 345,99;    1,562;  -36,900;    0,000;38,46200
 346,01;    4,495;  -16,800;    0,000;21,29500
 346,02;    2,899;  -18,600;    0,000;21,49900
 346,04;    4,723;   10,100;    0,000;-5,37700
 346,05;    2,667;  -29,900;    0,000;32,56700
 346,07;    0,910;  -31,300;    0,000;32,21000
 346,08;    2,620;  -38,900;    0,000;41,52000
 346,10;    2,978;  -30,700;    0,000;33,67800
 346,11;    3,187;   13,000;    0,000;-9,81300
 346,13;    2,805;  -52,800;    0,000;55,60500
 346,15;    5,575;    2,900;    0,000; 2,67500
 346,16;    3,226;    5,300;    0,000;-2,07400
 346,18;    4,414;  -28,000;    0,000;32,41400
 346,19;    2,388;  -59,300;    0,000;61,68800
 346,21;    2,815;   14,700;    0,000;-11,88500
 346,22;    3,653;  -62,000;    0,000;65,65300
 346,24;    2,098;   15,600;    0,000;-13,50200
 346,25;    6,330;    2,800;    0,000; 3,53000
 346,27;    3,357;   -6,900;    0,000;10,25700
 346,28;    2,629;  -68,200;    0,000;70,82900
 346,30;    2,918;  -68,900;    0,000;71,81800
 346,31;    3,068;  -32,000;    0,000;35,06800
 346,33;    5,737;  -14,300;    0,000;20,03700
 346,34;    3,376;  -34,700;    0,000;38,07600
 346,36;    5,057;  -26,400;    0,000;31,45700
 346,38;    3,452;   11,800;    0,000;-8,34800
 346,39;    5,720;   17,800;    0,000;-12,08000
 346,41;    5,508;   22,100;    0,000;-16,59200
 346,42;    3,999;  -40,300;    0,000;44,29900
 346,44;    4,418;   28,400;    0,000;-23,98200
 346,45;    6,303;  -18,200;    0,000;24,50300
 346,47;    5,282;  -57,100;    0,000;62,38200
 346,48;    6,955;  -20,700;    0,000;27,65500
 346,50;    7,146;   -5,500;    0,000;12,64600
 346,51;   11,387;  -19,300;    0,000;30,68700
 346,53;   12,636;  -75,400;    0,000;88,03600
 346,54;   17,961;    1,900;    0,000;16,06100
 346,56;   26,876;    6,200;    0,000;20,67600
 346,57;   45,356;  -16,600;    0,000;61,95600
 346,59;   75,550;  -39,300;    0,000;114,85000
 346,60;  149,224;   29,800;    0,000;119,42400
 346,62;  286,332;   28,000;    0,000;258,33200
 346,64;  528,828;  -39,400;    0,000;568,22800
 346,65;  824,712;  -24,100;    0,000;848,81200
 346,67; 1212,064;    0,800;    0,000;1211,26400
 346,68; 2154,607;   32,800;    0,000;2121,80700
 346,70; 3771,161;   -1,100;    0,000;3772,26100
 346,71; 3411,224;   51,500;    0,000;3359,72400
 346,73; 1474,804;    0,600;    0,000;1474,20400
 346,74;  389,744;  -31,700;    0,000;421,44400
 346,76;  236,725;  -10,800;    0,000;247,52500
 346,77;  301,987;  -18,400;    0,000;320,38700
 346,79;  438,103;    5,800;    0,000;432,30300
 346,80;  584,818;   -8,200;    0,000;593,01800
 346,82;  928,107;   -7,000;    0,000;935,10700
 346,83; 1785,984;    9,900;    0,000;1776,08400
 346,85; 2295,823;  -66,300;    0,000;2362,12300
 346,86; 1561,908;  -42,700;    0,000;1604,60800
 346,88;  433,457;   -6,300;    0,000;439,75700
 346,89;  117,750;   19,500;    0,000;98,25000
 346,91;   58,112;   11,900;    0,000;46,21200
 346,92;   39,346;  -39,800;    0,000;79,14600
 346,94;   26,472;  -36,500;    0,000;62,97200
 346,96;   21,699;  -36,200;    0,000;57,89900
 346,97;   19,384;    4,600;    0,000;14,78400
 346,99;   14,007;   36,900;    0,000;-22,89300
 347,00;   12,944;  -23,700;    0,000;36,64400
 347,02;   13,160;   -5,400;    0,000;18,56000
 347,03;   11,751;   -5,300;    0,000;17,05100
 347,05;    8,719;  -31,700;    0,000;40,41900
 347,06;    8,307;  -18,700;    0,000;27,00700
 347,08;    7,284;  -44,600;    0,000;51,88400
 347,09;    9,513;   41,000;    0,000;-31,48700
 347,11;    7,148;  -55,600;    0,000;62,74800
 347,12;    5,707;  -81,000;    0,000;86,70700
 347,14;    6,356;  -44,000;    0,000;50,35600
 347,15;    5,018;   38,500;    0,000;-33,48200
 347,17;    4,966;  -66,500;    0,000;71,46600
 347,18;    7,623;  -25,800;    0,000;33,42300
 347,20;    4,626;  -14,100;    0,000;18,72600
 347,21;    6,333;    3,300;    0,000; 3,03300
 347,23;    5,142;   42,400;    0,000;-37,25800
 347,24;    6,462;  -14,100;    0,000;20,56200
 347,26;    5,282;   -8,500;    0,000;13,78200
 347,27;    4,258;    4,300;    0,000;-0,04200
 347,29;    5,734;    1,700;    0,000; 4,03400
 347,30;    5,850;   24,500;    0,000;-18,65000
 347,32;    3,610;   -0,600;    0,000; 4,21000
 347,33;    3,791;  -45,800;    0,000;49,59100
 347,35;    2,475;   -7,400;    0,000; 9,87500
 347,36;    6,278;   -8,700;    0,000;14,97800
 347,38;    3,910;  -17,600;    0,000;21,51000
 347,40;    2,909;  -48,200;    0,000;51,10900
 347,41;    4,050;   -5,500;    0,000; 9,55000
 347,43;    2,192;   30,400;    0,000;-28,20800
 347,44;    3,320;  -54,700;    0,000;58,02000
 347,46;    5,371;  -44,700;    0,000;50,07100
 347,47;    4,254;  -84,800;    0,000;89,05400
 347,49;    5,900;   11,600;    0,000;-5,70000
 347,50;    4,080;  -36,300;    0,000;40,38000
 347,52;    3,333;  -12,300;    0,000;15,63300
 347,53;    2,057;  -50,800;    0,000;52,85700
 347,55;    4,681;  -23,900;    0,000;28,58100
 347,56;    5,880;   28,800;    0,000;-22,92000
 347,58;    4,420;  -36,500;    0,000;40,92000
 347,59;    2,988;  -76,600;    0,000;79,58800
 347,61;    2,886;  -37,000;    0,000;39,88600
 347,62;    3,587;  -65,400;    0,000;68,98700
 347,64;    5,662;  -12,700;    0,000;18,36200
 347,65;    4,879;  -16,900;    0,000;21,77900
 347,67;    5,949;  -24,600;    0,000;30,54900
 347,68;    3,180;  -62,700;    0,000;65,88000
 347,70;    5,272;  -39,400;    0,000;44,67200
 347,71;   -0,024;  -26,600;    0,000;26,57600
 347,73;    5,400;  -22,300;    0,000;27,70000
 347,74;    1,639;  -19,000;    0,000;20,63900
 347,76;    6,094;    9,900;    0,000;-3,80600
 347,77;    2,206;  -33,500;    0,000;35,70600
 347,79;    4,529;   18,100;    0,000;-13,57100
 347,80;    4,285;   12,800;    0,000;-8,51500
 347,82;    4,830;   20,400;    0,000;-15,57000
 347,83;    4,426;  -15,000;    0,000;19,42600
 347,85;    5,455;  -23,400;    0,000;28,85500
 347,86;    6,112;  -15,200;    0,000;21,31200
 347,88;    7,343;  -45,100;    0,000;52,44300
 347,89;    3,630;  -22,300;    0,000;25,93000
 347,91;    8,647;   38,800;    0,000;-30,15300
 347,92;    4,650;  -37,500;    0,000;42,15000
 347,94;    6,384;   17,500;    0,000;-11,11600
 347,95;    5,304;   39,900;    0,000;-34,59600
 347,97;    4,448;  -43,200;    0,000;47,64800
 347,98;    3,262;  -49,700;    0,000;52,96200
 348,00;    4,238;  -31,500;    0,000;35,73800
 348,01;    3,301;  -35,400;    0,000;38,70100
 348,03;    3,415;  -48,600;    0,000;52,01500
 348,04;    4,498;  -33,400;    0,000;37,89800
 348,06;    5,508;  -56,100;    0,000;61,60800
 348,07;    4,706;  -38,200;    0,000;42,90600
 348,09;    4,094;  -41,400;    0,000;45,49400
 348,10;    2,603;  -57,600;    0,000;60,20300
 348,12;    4,120;   -6,800;    0,000;10,92000
 348,13;    4,714;    9,900;    0,000;-5,18600
 348,15;    5,470;  -27,600;    0,000;33,07000
 348,16;    1,932;  -80,500;    0,000;82,43200
 348,18;    3,818;   -8,900;    0,000;12,71800
 348,19;    2,313;  -69,800;    0,000;72,11300
 348,21;    6,173;   14,200;    0,000;-8,02700
 348,22;    2,714;  -27,500;    0,000;30,21400
 348,24;    5,365;   -2,100;    0,000; 7,46500
 348,25;    4,452;  -23,600;    0,000;28,05200
 348,27;    5,186;   14,900;    0,000;-9,71400
 348,28;    3,790;  -27,900;    0,000;31,69000
 348,30;    5,240;  -35,200;    0,000;40,44000
 348,31;    3,207;  -16,400;    0,000;19,60700
 348,33;    2,738;   26,300;    0,000;-23,56200
 348,34;    1,384;  -38,800;    0,000;40,18400
 348,36;    2,683;    5,000;    0,000;-2,31700
 348,37;    1,221;  -21,300;    0,000;22,52100
 348,39;    6,321;   -3,800;    0,000;10,12100
 348,40;   -0,032;  -58,000;    0,000;57,96800
 348,42;    2,634;  -45,300;    0,000;47,93400
 348,43;    2,712;  -34,300;    0,000;37,01200
 348,45;    6,094;   51,300;    0,000;-45,20600
 348,46;    1,115;   24,300;    0,000;-23,18500
 348,48;    3,331;  -42,300;    0,000;45,63100
 348,49;    4,555;    9,500;    0,000;-4,94500
 348,51;    2,436;  -35,300;    0,000;37,73600
 348,52;   -0,320;  -18,000;    0,000;17,68000
 348,54;    2,413;  -20,600;    0,000;23,01300
 348,55;    0,599;  -35,800;    0,000;36,39900
 348,57;    3,572;    2,600;    0,000; 0,97200
 348,58;    1,816;   -3,000;    0,000; 4,81600
 348,60;    3,804;  -25,100;    0,000;28,90400
 348,61;    3,236;  -13,600;    0,000;16,83600
 348,63;    3,968;  -64,700;    0,000;68,66800
 348,64;    0,550;  -34,500;    0,000;35,05000
 348,66;    1,374;  -13,300;    0,000;14,67400
 348,67;    1,917;    0,400;    0,000; 1,51700
 348,69;    1,966;  -21,300;    0,000;23,26600
 348,70;    2,922;   26,600;    0,000;-23,67800
 348,72;    3,919;    7,700;    0,000;-3,78100
 348,73;    0,666;  -54,600;    0,000;55,26600
 348,75;    3,025;  -12,900;    0,000;15,92500
 348,76;    1,916;  -18,500;    0,000;20,41600
 348,78;    4,678;   30,000;    0,000;-25,32200
 348,79;    3,034;  -17,000;    0,000;20,03400
 348,81;    2,669;  -29,300;    0,000;31,96900
 348,82;    2,382;  -34,000;    0,000;36,38200
 348,84;    1,939;  -10,300;    0,000;12,23900
 348,85;    1,386;  -22,900;    0,000;24,28600
 348,87;    1,446;  -28,400;    0,000;29,84600
 348,88;    1,084;  -78,700;    0,000;79,78400
 348,90;    2,204;  -70,500;    0,000;72,70400
 348,91;    0,740;  -41,400;    0,000;42,14000
 348,92;    1,027;  -24,600;    0,000;25,62700
 348,94;    1,211;  -37,600;    0,000;38,81100
 348,95;    0,988;  -51,200;    0,000;52,18800
 348,97;    3,549;  -22,200;    0,000;25,74900
 348,98;    1,868;  -35,200;    0,000;37,06800
 349,00;   -0,018;  -55,300;    0,000;55,28200
 349,01;    2,622;    1,900;    0,000; 0,72200
 349,03;    0,549;  -28,900;    0,000;29,44900
 349,04;    3,082;  -54,400;    0,000;57,48200
 349,06;   -0,743;  -55,500;    0,000;54,75700
 349,07;    2,215;  -25,600;    0,000;27,81500
 349,09;   -2,796;  -49,400;    0,000;46,60400
 349,10;    2,588;  -28,700;    0,000;31,28800
 349,12;    0,972;  -94,700;    0,000;95,67200
 349,13;    1,863;   -4,300;    0,000; 6,16300
 349,15;    1,183;  -20,400;    0,000;21,58300
 349,16;    0,859;    3,800;    0,000;-2,94100
 349,18;   -0,106;   42,400;    0,000;-42,50600
 349,19;    4,362;    5,500;    0,000;-1,13800
 349,21;    0,528;    8,200;    0,000;-7,67200
 349,22;    1,780;   27,300;    0,000;-25,52000
 349,24;   -0,449;  -63,000;    0,000;62,55100
 349,25;   -0,457;  -27,400;    0,000;26,94300
 349,27;    1,514;  -27,700;    0,000;29,21400
 349,28;    2,214;   -3,900;    0,000; 6,11400
 349,30;    1,469;  -16,600;    0,000;18,06900
 349,31;    4,201;  -23,900;    0,000;28,10100
 349,33;    0,701;    7,500;    0,000;-6,79900
 349,34;    2,101;   12,800;    0,000;-10,69900
 349,35;    2,356;   34,700;    0,000;-32,34400
 349,37;    3,228;   -2,200;    0,000; 5,42800
 349,38;    0,632;   -9,000;    0,000; 9,63200
 349,40;    4,084;  -36,000;    0,000;40,08400
 349,41;    1,311;  -31,200;    0,000;32,51100
 349,43;   -0,779;  -10,300;    0,000; 9,52100
 349,44;    1,212;  -31,300;    0,000;32,51200
 349,46;   -0,097;   25,200;    0,000;-25,29700
 349,47;    1,910;   18,900;    0,000;-16,99000
 349,49;    2,967;  -15,000;    0,000;17,96700
 349,50;    0,558;  -19,300;    0,000;19,85800
 349,52;    5,133;   21,600;    0,000;-16,46700
 349,53;    1,496;  -38,200;    0,000;39,69600
 349,55;   -0,296;   16,200;    0,000;-16,49600
 349,56;    2,242;  -27,100;    0,000;29,34200
 349,58;    2,213;  -16,700;    0,000;18,91300
 349,59;    0,841;   13,000;    0,000;-12,15900
 349,61;    3,697;   -5,600;    0,000; 9,29700
 349,62;    0,137;  -30,800;    0,000;30,93700
 349,63;    1,127;  -53,700;    0,000;54,82700
 349,65;    0,302;   -9,200;    0,000; 9,50200
 349,66;    0,850;   14,700;    0,000;-13,85000
 349,68;   -0,542;  -38,000;    0,000;37,45800
 349,69;    2,879;  -33,400;    0,000;36,27900
 349,71;    0,246;  -16,200;    0,000;16,44600
 349,72;    1,858;   -0,400;    0,000; 2,25800
 349,74;    1,634;  -36,000;    0,000;37,63400
 349,75;    2,103;   -7,600;    0,000; 9,70300
 349,77;   -0,143;  -87,300;    0,000;87,15700
 349,78;    3,204;  -41,900;    0,000;45,10400
 349,80;   -0,234;  -24,400;    0,000;24,16600
 349,81;    1,699;  -31,600;    0,000;33,29900
 349,83;    2,110;    3,300;    0,000;-1,19000
 349,84;   -0,439;  -20,000;    0,000;19,56100
 349,86;    2,050;  -19,400;    0,000;21,45000
 349,87;    0,906;  -45,000;    0,000;45,90600
 349,88;    0,864;  -32,300;    0,000;33,16400
 349,90;    0,827;  -23,200;    0,000;24,02700
 349,91;    1,028;   25,400;    0,000;-24,37200
 349,93;    2,133;  -19,600;    0,000;21,73300
 349,94;    0,615;  -69,700;    0,000;70,31500
 349,96;    2,678;  -22,200;    0,000;24,87800
 349,97;    2,466;  -47,800;    0,000;50,26600
 349,99;    3,451;  -27,400;    0,000;30,85100
 350,00;    1,204;  -88,900;    0,000;90,10400
 350,02;    4,605;    3,500;    0,000; 1,10500
 350,03;    5,209;  -65,700;    0,000;70,90900
 350,05;   10,364;  -77,900;    0,000;88,26400
 350,06;   11,704;   -4,400;    0,000;16,10400
 350,08;   17,803;  -30,700;    0,000;48,50300
 350,09;   15,478;  -60,500;    0,000;75,97800
 350,10;    9,420;  -54,000;    0,000;63,42000
 350,12;    3,932;  -28,200;    0,000;32,13200
 350,13;    0,826;   -6,600;    0,000; 7,42600
 350,15;    2,799;  -19,400;    0,000;22,19900
 350,16;    2,773;  -37,900;    0,000;40,67300
 350,18;    0,436;  -76,400;    0,000;76,83600
 350,19;    2,790;    0,000;    0,000; 2,79000
 350,21;    1,392;  -35,700;    0,000;37,09200
 350,22;   -0,147;    0,100;    0,000;-0,24700
 350,24;    0,305;  -58,400;    0,000;58,70500
 350,25;    2,365;  -92,400;    0,000;94,76500
 350,27;   -0,495;  -67,300;    0,000;66,80500
 350,28;    0,428;   16,100;    0,000;-15,67200
 350,29;   -0,986;    2,600;    0,000;-3,58600
 350,31;    1,406;   -7,000;    0,000; 8,40600
 350,32;    0,259;  -56,100;    0,000;56,35900
 350,34;   -0,509;  -54,600;    0,000;54,09100
 350,35;    2,205;  -45,100;    0,000;47,30500
 350,37;    3,034;  -21,300;    0,000;24,33400
 350,38;    0,788;  -33,500;    0,000;34,28800
 350,40;    1,554;  -16,300;    0,000;17,85400
 350,41;    3,513;  -37,200;    0,000;40,71300
 350,43;    3,096;   25,300;    0,000;-22,20400
 350,44;    1,582;   -1,700;    0,000; 3,28200
 350,46;    3,124;  -13,200;    0,000;16,32400
 350,47;    1,524;  -32,800;    0,000;34,32400
 350,48;    0,183;    9,000;    0,000;-8,81700
 350,50;   -1,571;   -9,600;    0,000; 8,02900
 350,51;    2,697;  -18,500;    0,000;21,19700
 350,53;    2,384;  -12,800;    0,000;15,18400
 350,54;    3,385;  -61,200;    0,000;64,58500
 350,56;    0,560;   51,200;    0,000;-50,64000
 350,57;    2,341;  -81,200;    0,000;83,54100
 350,59;   -0,223;  -41,600;    0,000;41,37700
 350,60;    1,261;  -18,400;    0,000;19,66100
 350,62;   -0,224;  -54,000;    0,000;53,77600
 350,63;    3,371;  -31,800;    0,000;35,17100
 350,64;    2,134;  -53,200;    0,000;55,33400
 350,66;    1,245;  -36,500;    0,000;37,74500
 350,67;    0,738;    0,100;    0,000; 0,63800
 350,69;    2,621;  -29,100;    0,000;31,72100
 350,70;   -1,486;  -53,700;    0,000;52,21400
 350,72;    4,015;   -3,300;    0,000; 7,31500
 350,73;    2,016;  -40,300;    0,000;42,31600
 350,75;    1,706;  -23,900;    0,000;25,60600
 350,76;    0,715;    9,600;    0,000;-8,88500
 350,78;    3,339;   12,900;    0,000;-9,56100
 350,79;    1,791;   23,100;    0,000;-21,30900
 350,80;   -0,751;  -31,200;    0,000;30,44900
 350,82;    1,618;  -55,200;    0,000;56,81800
 350,83;    1,471;  -39,200;    0,000;40,67100
 350,85;   -0,026;  -35,800;    0,000;35,77400
 350,86;    1,058;  -32,900;    0,000;33,95800
 350,88;   -1,476;  -32,900;    0,000;31,42400
 350,89;    2,747;   19,700;    0,000;-16,95300
 350,91;   -0,087;    0,600;    0,000;-0,68700
 350,92;   -0,319;  -45,300;    0,000;44,98100
 350,93;    1,682;  -44,600;    0,000;46,28200
 350,95;    3,016;  -17,500;    0,000;20,51600
 350,96;    2,266;   15,200;    0,000;-12,93400
 350,98;    0,935;   -3,400;    0,000; 4,33500
 350,99;    1,618;  -38,700;    0,000;40,31800
 351,01;    2,055;  -51,800;    0,000;53,85500
 351,02;    1,186;  -14,200;    0,000;15,38600
 351,04;    2,485;  -29,500;    0,000;31,98500
 351,05;    0,556;  -89,000;    0,000;89,55600
 351,07;    2,158;  -29,100;    0,000;31,25800
 351,08;   -2,131;  -47,700;    0,000;45,56900
 351,09;    1,153;  -62,900;    0,000;64,05300
 351,11;   -1,796;  -91,000;    0,000;89,20400
 351,12;    0,862;    3,300;    0,000;-2,43800
 351,14;   -1,848;  -32,500;    0,000;30,65200
 351,15;    1,302;   -2,400;    0,000; 3,70200
 351,17;    1,370;  -38,000;    0,000;39,37000
 351,18;    1,604;  -26,000;    0,000;27,60400
 351,20;    0,656;  -25,500;    0,000;26,15600
 351,21;    1,021;  -33,200;    0,000;34,22100
 351,22;    0,308;  -26,500;    0,000;26,80800
 351,24;    0,945;  -19,100;    0,000;20,04500
 351,25;    0,984;  -29,300;    0,000;30,28400
 351,27;   -1,005;   -8,200;    0,000; 7,19500
 351,28;   -0,120;  -31,500;    0,000;31,38000
 351,30;    0,727;   11,100;    0,000;-10,37300
 351,31;  -13,251;    5,400;    0,000;-18,65100
 351,33;   26,593;    7,900;    0,000;18,69300
 351,34;   60,774;  -26,200;    0,000;86,97400
 351,35;    4,065;   18,500;    0,000;-14,43500
 351,37;    1,168;    3,600;    0,000;-2,43200
 351,38;    0,872;  -18,600;    0,000;19,47200
 351,40;   -0,839;  -16,800;    0,000;15,96100
 351,41;    2,563;   -4,000;    0,000; 6,56300
 351,43;    0,913;  -63,900;    0,000;64,81300
 351,44;    1,011;  -14,300;    0,000;15,31100
 351,45;    0,382;  -75,000;    0,000;75,38200
 351,47;    2,648;   -5,300;    0,000; 7,94800
 351,48;    0,757;  -10,900;    0,000;11,65700
 351,50;   -0,144;  -39,800;    0,000;39,65600
 351,51;    3,015;   22,100;    0,000;-19,08500
 351,53;    1,401;  -36,100;    0,000;37,50100
 351,54;   -0,411;  -25,300;    0,000;24,88900
 351,56;    1,379;  -52,700;    0,000;54,07900
 351,57;    1,472;  -31,900;    0,000;33,37200
 351,58;    2,735;    7,600;    0,000;-4,86500
 351,60;    0,610;  -33,000;    0,000;33,61000
 351,61;    0,581;  -48,700;    0,000;49,28100
 351,63;    0,283;  -47,400;    0,000;47,68300
 351,64;    2,295;    2,900;    0,000;-0,60500
 351,66;   -0,332;    2,500;    0,000;-2,83200
 351,67;   -0,312;  -23,200;    0,000;22,88800
 351,68;    0,242;  -34,100;    0,000;34,34200
 351,70;    2,838;  -59,700;    0,000;62,53800
 351,71;    1,347;  -70,300;    0,000;71,64700
 351,73;    1,775;   10,500;    0,000;-8,72500
 351,74;    0,792;  -49,700;    0,000;50,49200
 351,76;    0,860;  -28,000;    0,000;28,86000
 351,77;    0,794;   16,800;    0,000;-16,00600
 351,78;    1,433;  -22,100;    0,000;23,53300
 351,80;    1,585;    7,000;    0,000;-5,41500
 351,81;    2,488;   37,700;    0,000;-35,21200
 351,83;   -1,966;  -24,800;    0,000;22,83400
 351,84;    1,020;   28,100;    0,000;-27,08000
 351,86;    3,246;    0,700;    0,000; 2,54600
 351,87;    0,916;  -17,900;    0,000;18,81600
 351,89;   -0,104;    6,000;    0,000;-6,10400
 351,90;    1,880;    3,000;    0,000;-1,12000
 351,91;    0,492;  -23,300;    0,000;23,79200
 351,93;    1,749;    7,100;    0,000;-5,35100
 351,94;   -0,933;  -25,600;    0,000;24,66700
 351,96;    2,205;  -41,800;    0,000;44,00500
 351,97;    0,674;   30,000;    0,000;-29,32600
 351,99;   -1,567;  -31,300;    0,000;29,73300
 352,00;    2,706;    2,800;    0,000;-0,09400
 352,01;    1,862;  -25,700;    0,000;27,56200
 352,03;    2,702;  -35,100;    0,000;37,80200
 352,04;    1,765;   22,100;    0,000;-20,33500
 352,06;    0,417;  -57,800;    0,000;58,21700
 352,07;    0,249;  -59,400;    0,000;59,64900
 352,09;    0,246;  -18,300;    0,000;18,54600
 352,10;    1,977;  -35,900;    0,000;37,87700
 352,11;    1,244;  -23,400;    0,000;24,64400
 352,13;   -0,154;  -40,800;    0,000;40,64600
 352,14;   -0,112;  -51,300;    0,000;51,18800
 352,16;    2,681;   43,200;    0,000;-40,51900
 352,17;    1,005;    7,600;    0,000;-6,59500
 352,18;    2,320;   14,600;    0,000;-12,28000
 352,20;   -0,095;   33,500;    0,000;-33,59500
 352,21;    1,062;   13,600;    0,000;-12,53800
 352,23;    1,367;    4,600;    0,000;-3,23300
 352,24;    1,995;  -44,800;    0,000;46,79500
 352,26;    2,502;  -37,000;    0,000;39,50200
 352,27;    3,325;    5,400;    0,000;-2,07500
 352,28;   -0,720;  -39,700;    0,000;38,98000
 352,30;    2,670;  -63,400;    0,000;66,07000
 352,31;   -0,130;   -5,000;    0,000; 4,87000
 352,33;    1,416;  -13,000;    0,000;14,41600
 352,34;    1,674;   17,600;    0,000;-15,92600
 352,36;    0,515;  -49,200;    0,000;49,71500
 352,37;    2,752;  -16,100;    0,000;18,85200
 352,38;    2,477;    8,200;    0,000;-5,72300
 352,40;    0,562;   -5,600;    0,000; 6,16200
 352,41;    2,502;   28,200;    0,000;-25,69800
 352,43;    0,562;   -6,600;    0,000; 7,16200
 352,44;    1,876;  -41,200;    0,000;43,07600
 352,46;    0,970;   -4,400;    0,000; 5,37000
 352,47;    4,293;   26,500;    0,000;-22,20700
 352,48;   -0,910;  -18,200;    0,000;17,29000
 352,50;    1,488;   -3,200;    0,000; 4,68800
 352,51;   -1,105;    9,700;    0,000;-10,80500
 352,53;   -0,733;   -6,700;    0,000; 5,96700
 352,54;    0,550;  -42,800;    0,000;43,35000
 352,55;    2,890;   27,800;    0,000;-24,91000
 352,57;   -0,651;  -24,600;    0,000;23,94900
 352,58;    1,908;  -11,900;    0,000;13,80800
 352,60;    1,520;  -16,300;    0,000;17,82000
 352,61;    2,416;   11,100;    0,000;-8,68400
 352,63;    2,990;  -23,800;    0,000;26,79000
 352,64;    3,852;    7,400;    0,000;-3,54800
 352,65;   -1,469;  -94,400;    0,000;92,93100
 352,67;   -0,199;  -55,700;    0,000;55,50100
 352,68;   -0,531;  -44,700;    0,000;44,16900
 352,70;    3,579;  -45,100;    0,000;48,67900
 352,71;    3,704;  -11,400;    0,000;15,10400
 352,72;    2,656;    8,000;    0,000;-5,34400
 352,74;   -0,056;   -3,400;    0,000; 3,34400
 352,75;    0,942;  -20,700;    0,000;21,64200
 352,77;    0,351;    4,200;    0,000;-3,84900
 352,78;    1,907;  -40,200;    0,000;42,10700
 352,79;    0,347;  -13,600;    0,000;13,94700
 352,81;    2,372;  -17,500;    0,000;19,87200
 352,82;    2,785;  -46,600;    0,000;49,38500
 352,84;    2,619;  -45,600;    0,000;48,21900
 352,85;    0,013;  -47,200;    0,000;47,21300
 352,87;    2,675;  -10,600;    0,000;13,27500
 352,88;   -0,961;  -15,900;    0,000;14,93900
 352,89;    1,468;  -37,400;    0,000;38,86800
 352,91;    1,355;  -37,300;    0,000;38,65500
 352,92;    1,209;   -9,800;    0,000;11,00900
 352,94;    1,603;   -8,900;    0,000;10,50300
 352,95;    0,796;   -5,600;    0,000; 6,39600
 352,96;    1,830;  -47,100;    0,000;48,93000
 352,98;    2,955;   20,000;    0,000;-17,04500
 352,99;   -0,398;  -13,300;    0,000;12,90200
 353,01;    2,774;  -45,800;    0,000;48,57400
 353,02;    2,360;  -32,500;    0,000;34,86000
 353,03;    2,535;  -12,000;    0,000;14,53500
 353,05;    0,990;  -45,100;    0,000;46,09000
 353,06;    2,260;    8,200;    0,000;-5,94000
 353,08;    0,824;  -25,400;    0,000;26,22400
 353,09;    2,443;  -20,500;    0,000;22,94300
 353,11;    0,778;  -62,900;    0,000;63,67800
 353,12;    4,403;   84,400;    0,000;-79,99700
 353,13;    0,513;    9,600;    0,000;-9,08700
 353,15;    2,930;   -8,700;    0,000;11,63000
 353,16;   -0,296;  -19,300;    0,000;19,00400
 353,18;    1,214;  -51,300;    0,000;52,51400
 353,19;   -0,409;  -58,700;    0,000;58,29100
 353,20;    3,677;    0,900;    0,000; 2,77700
 353,22;    1,425;  -62,700;    0,000;64,12500
 353,23;    0,202;    0,600;    0,000;-0,39800
 353,25;    1,228;   13,900;    0,000;-12,67200
 353,26;    1,075;  -37,800;    0,000;38,87500
 353,27;    1,810;   10,500;    0,000;-8,69000
 353,29;    0,412;  -69,200;    0,000;69,61200
 353,30;    0,031;    9,500;    0,000;-9,46900
 353,32;   -0,716;  -29,800;    0,000;29,08400
 353,33;   -0,780;  -28,500;    0,000;27,72000
 353,34;    1,263;   -7,400;    0,000; 8,66300
 353,36;   -0,563;   -3,300;    0,000; 2,73700
 353,37;    2,858;  -11,600;    0,000;14,45800
 353,39;    0,220;  -14,400;    0,000;14,62000
 353,40;    0,273;  -81,700;    0,000;81,97300
 353,41;    0,055;   -7,100;    0,000; 7,15500
 353,43;    1,543;  -34,100;    0,000;35,64300
 353,44;    2,275;  -25,700;    0,000;27,97500
 353,46;    2,638;   -0,100;    0,000; 2,73800
 353,47;    1,022;  -33,700;    0,000;34,72200
 353,48;    1,271;  -10,400;    0,000;11,67100
 353,50;    1,354;    5,000;    0,000;-3,64600
 353,51;    3,379;  -11,500;    0,000;14,87900
 353,53;    4,080;   54,000;    0,000;-49,92000
 353,54;    2,915;   25,400;    0,000;-22,48500
 353,55;    0,220;  -76,000;    0,000;76,22000
 353,57;    3,512;   -5,400;    0,000; 8,91200
 353,58;    1,321;    3,500;    0,000;-2,17900
 353,60;    0,790;  -29,600;    0,000;30,39000
 353,61;    1,137;    1,500;    0,000;-0,36300
 353,62;    4,088;   -7,800;    0,000;11,88800
 353,64;    0,409;    6,900;    0,000;-6,49100
 353,65;    3,544;   25,800;    0,000;-22,25600
 353,67;    4,100;  -21,500;    0,000;25,60000
 353,68;    1,664;  -29,400;    0,000;31,06400
 353,69;   -0,178;  -27,600;    0,000;27,42200
 353,71;    2,412;  -14,300;    0,000;16,71200
 353,72;    1,826;  -66,300;    0,000;68,12600
 353,74;    2,755;   15,800;    0,000;-13,04500
 353,75;   -0,659;  -24,600;    0,000;23,94100
 353,76;    3,251;  -24,900;    0,000;28,15100
 353,78;   -0,820;  -68,200;    0,000;67,38000
 353,79;    2,270;  -13,000;    0,000;15,27000
 353,80;    2,181;  109,100;    0,000;-106,91900
 353,82;    3,143;  -38,900;    0,000;42,04300
 353,83;    1,892;  -20,000;    0,000;21,89200
 353,85;    2,193;  -15,300;    0,000;17,49300
 353,86;   -1,936;  -24,700;    0,000;22,76400
 353,87;    2,380;  -20,100;    0,000;22,48000
 353,89;    0,989;   14,700;    0,000;-13,71100
 353,90;    4,024;    0,300;    0,000; 3,72400
 353,92;   -2,262;  -41,500;    0,000;39,23800
 353,93;    1,425;  -25,800;    0,000;27,22500
 353,94;   -0,748;  -85,500;    0,000;84,75200
 353,96;    2,369;   77,200;    0,000;-74,83100
 353,97;    0,575;  -20,700;    0,000;21,27500
 353,99;    2,975;  -11,800;    0,000;14,77500
 354,00;   -2,561;  -56,800;    0,000;54,23900
 354,01;    1,666;   -3,500;    0,000; 5,16600
 354,03;    0,567;  -18,300;    0,000;18,86700
 354,04;    2,937;  -30,500;    0,000;33,43700
 354,06;    0,670;  -84,500;    0,000;85,17000
 354,07;    3,957;   67,900;    0,000;-63,94300
 354,08;   -1,644;  -50,600;    0,000;48,95600
 354,10;    3,747;   19,300;    0,000;-15,55300
 354,11;    0,331;  -67,200;    0,000;67,53100
 354,12;    1,807;   24,800;    0,000;-22,99300
 354,14;    0,967;  -73,400;    0,000;74,36700
 354,15;    2,042;   10,700;    0,000;-8,65800
 354,17;    2,140;  -38,400;    0,000;40,54000
 354,18;    3,188;  -17,200;    0,000;20,38800
 354,19;   -0,137;  -17,000;    0,000;16,86300
 354,21;    0,066;  -20,500;    0,000;20,56600
 354,22;   -0,391;  -40,600;    0,000;40,20900
 354,24;   -0,186;   -7,600;    0,000; 7,41400
 354,25;    0,085;    9,200;    0,000;-9,11500
 354,26;    3,211;  -19,400;    0,000;22,61100
 354,28;   -1,597;    2,300;    0,000;-3,89700
 354,29;    1,681;  -28,800;    0,000;30,48100
 354,30;    3,065;  -20,800;    0,000;23,86500
 354,32;    2,005;   49,500;    0,000;-47,49500
 354,33;    0,867;  -11,100;    0,000;11,96700
 354,35;    0,920;  -50,000;    0,000;50,92000
 354,36;    1,117;    8,600;    0,000;-7,48300
 354,37;    1,232;   -0,100;    0,000; 1,33200
 354,39;    0,706;  -49,900;    0,000;50,60600
 354,40;    1,863;   12,700;    0,000;-10,83700
 354,41;   -1,141;  -11,700;    0,000;10,55900
 354,43;    2,011;  -31,100;    0,000;33,11100
 354,44;    0,705;    9,100;    0,000;-8,39500
 354,46;    0,149;  -63,400;    0,000;63,54900
 354,47;    1,434;  -52,200;    0,000;53,63400
 354,48;    2,033;  -40,900;    0,000;42,93300
 354,50;   -0,276;  -10,900;    0,000;10,62400
 354,51;    3,776;   15,400;    0,000;-11,62400
 354,53;   -0,116;  -57,600;    0,000;57,48400
 354,54;    4,709;  -10,700;    0,000;15,40900
 354,55;    1,320;  -10,700;    0,000;12,02000
 354,57;   -0,008;  -14,700;    0,000;14,69200
 354,58;    1,910;  -22,300;    0,000;24,21000
 354,59;    1,390;    9,900;    0,000;-8,51000
 354,61;    1,027;  -31,000;    0,000;32,02700
 354,62;    2,606;   13,100;    0,000;-10,49400
 354,64;    1,477;  -39,300;    0,000;40,77700
 354,65;    1,341;  -23,700;    0,000;25,04100
 354,66;   -1,571;  -56,500;    0,000;54,92900
 354,68;    2,303;  -33,700;    0,000;36,00300
 354,69;    2,935;   14,500;    0,000;-11,56500
 354,70;    3,322;  -32,200;    0,000;35,52200
 354,72;    3,784;  -40,400;    0,000;44,18400
 354,73;    3,023;  -16,500;    0,000;19,52300
 354,75;    1,619;   38,000;    0,000;-36,38100
 354,76;    1,862;  -39,600;    0,000;41,46200
 354,77;    2,436;  -43,100;    0,000;45,53600
 354,79;    3,444;    4,900;    0,000;-1,45600
 354,80;    1,172;   47,300;    0,000;-46,12800
 354,81;    3,696;  -28,500;    0,000;32,19600
 354,83;   -0,884;  -15,700;    0,000;14,81600
 354,84;    1,103;  -81,300;    0,000;82,40300
 354,86;    0,463;   30,700;    0,000;-30,23700
 354,87;    3,014;   -2,200;    0,000; 5,21400
 354,88;   -0,706;  -71,200;    0,000;70,49400
 354,90;    1,068;  -47,500;    0,000;48,56800
 354,91;    0,804;  -15,700;    0,000;16,50400
 354,92;    2,072;   50,300;    0,000;-48,22800
 354,94;    0,760;    5,800;    0,000;-5,04000
 354,95;    3,000;  -45,400;    0,000;48,40000
 354,96;    2,262;   -3,400;    0,000; 5,66200
 354,98;    3,346;  -21,500;    0,000;24,84600
 354,99;    1,591;  -25,000;    0,000;26,59100
 355,01;    2,831;  -69,600;    0,000;72,43100
 355,02;    1,922;   -0,300;    0,000; 2,22200
 355,03;    3,252;   65,900;    0,000;-62,64800
 355,05;    0,908;  -16,400;    0,000;17,30800
 355,06;    1,910;   -0,500;    0,000; 2,41000
 355,07;   -0,176;  -39,600;    0,000;39,42400
 355,09;    0,591;  -25,400;    0,000;25,99100
 355,10;   -1,173;  -48,300;    0,000;47,12700
 355,12;    3,466;  -12,100;    0,000;15,56600
 355,13;   -0,147;  -94,800;    0,000;94,65300
 355,14;    3,217;  -36,100;    0,000;39,31700
 355,16;    0,638;  -15,800;    0,000;16,43800
 355,17;    1,602;    5,000;    0,000;-3,39800
 355,18;    4,592;  -36,100;    0,000;40,69200
 355,20;   -0,435;  -28,700;    0,000;28,26500
 355,21;   -1,017;  -22,100;    0,000;21,08300
 355,22;    2,642;  -40,800;    0,000;43,44200
 355,24;   -0,089;  -14,300;    0,000;14,21100
 355,25;    2,690;   17,600;    0,000;-14,91000
 355,27;    2,077;  -52,300;    0,000;54,37700
 355,28;    2,552;   29,000;    0,000;-26,44800
 355,29;    0,164;  -18,600;    0,000;18,76400
 355,31;    1,681;  -41,700;    0,000;43,38100
 355,32;    3,417;  -64,800;    0,000;68,21700
 355,33;    1,441;  -14,800;    0,000;16,24100
 355,35;    2,310;    4,400;    0,000;-2,09000
 355,36;    3,810;  -26,300;    0,000;30,11000
 355,37;    2,365;   -6,700;    0,000; 9,06500
 355,39;    3,023;   -6,500;    0,000; 9,52300
 355,40;   -0,260;  -34,800;    0,000;34,54000
 355,42;    1,190;  -14,200;    0,000;15,39000
 355,43;    1,585;  -57,400;    0,000;58,98500
 355,44;    3,080;  -17,500;    0,000;20,58000
 355,46;    2,761;   30,500;    0,000;-27,73900
 355,47;    4,413;  -41,700;    0,000;46,11300
 355,48;    1,184;   40,800;    0,000;-39,61600
 355,50;    1,433;   -7,400;    0,000; 8,83300
 355,51;    2,268;  -40,300;    0,000;42,56800
 355,52;    1,116;   13,800;    0,000;-12,68400
 355,54;    1,445;  -32,000;    0,000;33,44500
 355,55;    3,181;  -42,000;    0,000;45,18100
 355,56;    3,150;  -28,900;    0,000;32,05000
 355,58;    2,999;  -24,400;    0,000;27,39900
 355,59;    2,379;   -2,200;    0,000; 4,57900
 355,61;    3,238;   -4,100;    0,000; 7,33800
 355,62;   -1,042;  -29,200;    0,000;28,15800
 355,63;    3,503;  -12,100;    0,000;15,60300
 355,65;    2,110;  -38,900;    0,000;41,01000
 355,66;    2,377;  -55,200;    0,000;57,57700
 355,67;    1,183;   17,700;    0,000;-16,51700
 355,69;    1,181;    5,200;    0,000;-4,01900
 355,70;    1,219;  -60,900;    0,000;62,11900
 355,71;    2,725;  -27,600;    0,000;30,32500
 355,73;    1,413;   19,100;    0,000;-17,68700
 355,74;    1,320;  -26,600;    0,000;27,92000
 355,75;    0,654;   -9,300;    0,000; 9,95400
 355,77;    4,306;  -37,000;    0,000;41,30600
 355,78;    1,271;  -34,100;    0,000;35,37100
 355,79;    1,900;  -13,400;    0,000;15,30000
 355,81;    2,648;  -54,400;    0,000;57,04800
 355,82;    1,230;  -25,100;    0,000;26,33000
 355,84;    1,111;  -10,400;    0,000;11,51100
 355,85;    2,231;   -2,600;    0,000; 4,83100
 355,86;    1,445;  -93,100;    0,000;94,54500
 355,88;    1,432;  -15,500;    0,000;16,93200
 355,89;    1,977;  -27,200;    0,000;29,17700
 355,90;    3,216;  -14,700;    0,000;17,91600
 355,92;    0,512;  -21,600;    0,000;22,11200
 355,93;    1,120;   -4,400;    0,000; 5,52000
 355,94;    3,097;  -48,400;    0,000;51,49700
 355,96;    2,169;  -58,100;    0,000;60,26900
 355,97;   -0,239;  -29,800;    0,000;29,56100
 355,98;    2,903;   24,000;    0,000;-21,09700
 356,00;    1,191;  -23,900;    0,000;25,09100
 356,01;    0,274;  -56,400;    0,000;56,67400
 356,02;    0,449;  -52,500;    0,000;52,94900
 356,04;    3,233;   -6,200;    0,000; 9,43300
 356,05;    1,598;  -25,900;    0,000;27,49800
 356,06;    4,195;  -23,800;    0,000;27,99500
 356,08;    2,538;  -36,700;    0,000;39,23800
 356,09;    0,892;  -14,200;    0,000;15,09200
 356,11;    0,207;   32,800;    0,000;-32,59300
 356,12;    2,787;  -12,700;    0,000;15,48700
 356,13;    0,388;  -35,000;    0,000;35,38800
 356,15;    3,297;   17,900;    0,000;-14,60300
 356,16;    1,998;   12,400;    0,000;-10,40200
 356,17;    3,241;  -14,200;    0,000;17,44100
 356,19;    0,653;  -14,400;    0,000;15,05300
 356,20;    2,839;  -29,500;    0,000;32,33900
 356,21;    0,147;  -41,900;    0,000;42,04700
 356,23;    1,269;  -20,500;    0,000;21,76900
 356,24;    0,862;  -96,500;    0,000;97,36200
 356,25;    1,685;   17,800;    0,000;-16,11500
 356,27;    0,434;   27,000;    0,000;-26,56600
 356,28;    1,336;  -36,300;    0,000;37,63600
 356,29;    1,399;  -55,000;    0,000;56,39900
 356,31;    5,645;   11,700;    0,000;-6,05500
 356,32;    2,965;  -44,900;    0,000;47,86500
 356,33;    2,980;  -37,600;    0,000;40,58000
 356,35;    2,105;    2,300;    0,000;-0,19500
 356,36;    4,232;  -14,600;    0,000;18,83200
 356,37;    0,768;    8,900;    0,000;-8,13200
 356,39;    3,346;    8,200;    0,000;-4,85400
 356,40;   -1,175;  -69,000;    0,000;67,82500
 356,41;    2,385;   24,100;    0,000;-21,71500
 356,43;    0,873;  -18,800;    0,000;19,67300
 356,44;    2,498;  -74,000;    0,000;76,49800
 356,45;    2,652;  -42,100;    0,000;44,75200
 356,47;    2,279;  -58,900;    0,000;61,17900
 356,48;    0,483;  -15,500;    0,000;15,98300
 356,49;    2,267;  -19,800;    0,000;22,06700
 356,51;    2,227;  -29,500;    0,000;31,72700
 356,52;    2,738;  -17,400;    0,000;20,13800
 356,53;    1,026;    1,000;    0,000; 0,02600
 356,55;    2,538;  -50,200;    0,000;52,73800
 356,56;    2,882;  -30,700;    0,000;33,58200
 356,57;    1,582;  -14,300;    0,000;15,88200
 356,59;    3,679;   17,200;    0,000;-13,52100
 356,60;    4,473;   20,800;    0,000;-16,32700
 356,61;    1,736;  -47,600;    0,000;49,33600
 356,63;    2,823;   70,700;    0,000;-67,87700
 356,64;    0,387;    4,600;    0,000;-4,21300
 356,65;    1,613;  -27,600;    0,000;29,21300
 356,67;   -0,933;  -67,500;    0,000;66,56700
 356,68;    3,237;   36,600;    0,000;-33,36300
 356,69;    2,692;  -51,400;    0,000;54,09200
 356,71;    4,191;   21,700;    0,000;-17,50900
 356,72;   -0,744;  -37,800;    0,000;37,05600
 356,73;    2,129;    3,300;    0,000;-1,17100
 356,75;   -0,524;   22,000;    0,000;-22,52400
 356,76;    0,670;  -11,400;    0,000;12,07000
 356,77;    2,320;  -47,300;    0,000;49,62000
 356,79;    2,093;   22,000;    0,000;-19,90700
 356,80;    0,755;  -53,800;    0,000;54,55500
 356,81;    1,487;  -51,800;    0,000;53,28700
 356,83;   -0,488;  -89,200;    0,000;88,71200
 356,84;    0,829;  -42,400;    0,000;43,22900
 356,85;    2,359;  -41,700;    0,000;44,05900
 356,87;    2,844;  -41,200;    0,000;44,04400
 356,88;    2,356;  -50,000;    0,000;52,35600
 356,89;    2,543;   -6,800;    0,000; 9,34300
 356,91;    2,191;  -23,700;    0,000;25,89100
 356,92;   -0,182;  -38,000;    0,000;37,81800
 356,93;    1,563;  -34,000;    0,000;35,56300
 356,95;    2,447;  -14,100;    0,000;16,54700
 356,96;    1,259;   -3,600;    0,000; 4,85900
 356,97;    1,916;  -38,900;    0,000;40,81600
 356,99;    1,024;  -94,200;    0,000;95,22400
 357,00;    4,042;   -8,500;    0,000;12,54200
 357,01;    4,694;  -56,200;    0,000;60,89400
 357,03;    2,137;   38,000;    0,000;-35,86300
 357,04;   -0,052;  -22,700;    0,000;22,64800
 357,05;    4,390;   31,700;    0,000;-27,31000
 357,07;   -0,270;  -31,400;    0,000;31,13000
 357,08;    2,611;  -22,100;    0,000;24,71100
 357,09;    0,594;  -41,600;    0,000;42,19400
 357,11;    0,501;  -57,000;    0,000;57,50100
 357,12;   -0,242;  -15,600;    0,000;15,35800
 357,13;    2,282;  -48,700;    0,000;50,98200
 357,15;    1,351;  -83,100;    0,000;84,45100
 357,16;    2,024;  -24,300;    0,000;26,32400
 357,17;   -0,330;  -24,600;    0,000;24,27000
 357,19;    2,884;   15,600;    0,000;-12,71600
 357,20;    1,202;  -13,900;    0,000;15,10200
 357,21;    1,698;  -12,300;    0,000;13,99800
 357,23;    0,309;  -49,000;    0,000;49,30900
 357,24;    3,430;  -13,300;    0,000;16,73000
 357,25;    1,170;   -7,600;    0,000; 8,77000
 357,26;    2,737;  -24,000;    0,000;26,73700
 357,28;    3,678;  -73,500;    0,000;77,17800
 357,29;    4,013;  -35,000;    0,000;39,01300
 357,30;   -0,027;  -33,900;    0,000;33,87300
 357,32;    3,027;  -18,500;    0,000;21,52700
 357,33;    2,441;  -67,400;    0,000;69,84100
 357,34;    3,492;   32,400;    0,000;-28,90800
 357,36;    1,370;  -28,600;    0,000;29,97000
 357,37;    4,767;    2,900;    0,000; 1,86700
 357,38;    2,359;  -43,700;    0,000;46,05900
 357,40;    2,807;  -31,500;    0,000;34,30700
 357,41;    0,356;  -69,100;    0,000;69,45600
 357,42;    2,908;  -71,000;    0,000;73,90800
 357,44;    2,219;   50,500;    0,000;-48,28100
 357,45;    2,130;  -11,000;    0,000;13,13000
 357,46;   -0,325;  -55,900;    0,000;55,57500
 357,48;    4,423;   -4,400;    0,000; 8,82300
 357,49;    1,453;    3,400;    0,000;-1,94700
 357,50;    2,496;   -0,200;    0,000; 2,69600
 357,52;   -0,680;   10,400;    0,000;-11,08000
 357,53;    3,318;   -8,700;    0,000;12,01800
 357,54;    2,487;  -36,300;    0,000;38,78700
 357,55;    3,936;  -42,500;    0,000;46,43600
 357,57;    3,233;  -58,800;    0,000;62,03300
 357,58;    3,953;  -29,500;    0,000;33,45300
 357,59;    1,789;  -38,700;    0,000;40,48900
 357,61;    2,141;  -30,500;    0,000;32,64100
 357,62;    0,313;  -33,000;    0,000;33,31300
 357,63;    3,559;   21,800;    0,000;-18,24100
 357,65;    1,774;  -49,700;    0,000;51,47400
 357,66;    1,940;  -32,800;    0,000;34,74000
 357,67;    3,960;  -37,500;    0,000;41,46000
 357,69;    4,243;   13,400;    0,000;-9,15700
 357,70;    0,636; -104,600;    0,000;105,23600
 357,71;    3,279;   -3,800;    0,000; 7,07900
 357,73;    3,527;   51,600;    0,000;-48,07300
 357,74;    3,408;  -38,000;    0,000;41,40800
 357,75;    2,772;  -14,100;    0,000;16,87200
 357,76;    2,096;  -15,800;    0,000;17,89600
 357,78;    2,344;  -26,000;    0,000;28,34400
 357,79;    5,009;   -0,400;    0,000; 5,40900
 357,80;    2,912;  -57,400;    0,000;60,31200
 357,82;    2,589;    3,200;    0,000;-0,61100
 357,83;    1,860;  -59,500;    0,000;61,36000
 357,84;    4,002;  -17,400;    0,000;21,40200
 357,86;    3,024;   10,700;    0,000;-7,67600
 357,87;    2,790;  -25,300;    0,000;28,09000
 357,88;    2,810;   19,400;    0,000;-16,59000
 357,90;   -0,478;  -32,400;    0,000;31,92200
 357,91;    4,045;  -16,500;    0,000;20,54500
 357,92;    3,228;  -22,600;    0,000;25,82800
 357,93;    1,098;  -51,400;    0,000;52,49800
 357,95;    1,453;  -60,900;    0,000;62,35300
 357,96;    0,538;  -37,900;    0,000;38,43800
 357,97;    1,297;  -24,600;    0,000;25,89700
 357,99;    0,567;  -13,800;    0,000;14,36700
 358,00;    2,739;  -11,800;    0,000;14,53900
 358,01;    0,747;  -47,000;    0,000;47,74700
 358,03;    2,750;  -31,100;    0,000;33,85000
 358,04;    1,856;  -71,100;    0,000;72,95600
 358,05;    3,353;  -19,700;    0,000;23,05300
 358,07;    2,101;  -19,000;    0,000;21,10100
 358,08;    3,633;  -27,600;    0,000;31,23300
 358,09;    0,895;  -68,800;    0,000;69,69500
 358,10;    3,523;   26,300;    0,000;-22,77700
 358,12;    1,150;  -13,300;    0,000;14,45000
 358,13;    0,832;  -46,300;    0,000;47,13200
 358,14;    0,342;  -29,300;    0,000;29,64200
 358,16;    4,602;  -32,500;    0,000;37,10200
 358,17;    3,863;    9,200;    0,000;-5,33700
 358,18;    2,512;  -17,800;    0,000;20,31200
 358,20;    2,806;   12,200;    0,000;-9,39400
 358,21;    2,970;    3,300;    0,000;-0,33000
 358,22;    3,217;    1,000;    0,000; 2,21700
 358,23;    3,280;  -33,700;    0,000;36,98000
 358,25;    2,449;  -20,900;    0,000;23,34900
 358,26;    2,843;   13,500;    0,000;-10,65700
 358,27;    0,981;  -25,300;    0,000;26,28100
 358,29;    2,129;  -20,400;    0,000;22,52900
 358,30;    2,103;  -11,600;    0,000;13,70300
 358,31;    3,941;   37,000;    0,000;-33,05900
 358,33;    3,560;  -33,300;    0,000;36,86000
 358,34;    2,216;  -11,200;    0,000;13,41600
 358,35;    1,266;  -12,500;    0,000;13,76600
 358,36;    2,877;   -9,600;    0,000;12,47700
 358,38;    0,773;  -60,700;    0,000;61,47300
 358,39;    2,250;  -63,200;    0,000;65,45000
 358,40;    0,724;  -47,500;    0,000;48,22400
 358,42;    3,577;  -29,800;    0,000;33,37700
 358,43;    1,300;  -29,400;    0,000;30,70000
 358,44;    1,970;  -51,500;    0,000;53,47000
 358,45;    2,764; -106,900;    0,000;109,66400
 358,47;    1,746;   -8,400;    0,000;10,14600
 358,48;    0,919;  -33,700;    0,000;34,61900
 358,49;    2,093;  -57,600;    0,000;59,69300
 358,51;    1,458;    9,600;    0,000;-8,14200
 358,52;    2,824;  -32,600;    0,000;35,42400
 358,53;    2,288;   38,200;    0,000;-35,91200
 358,55;    2,310;  -54,400;    0,000;56,71000
 358,56;    4,142;   -3,400;    0,000; 7,54200
 358,57;    1,954;  -39,000;    0,000;40,95400
 358,58;    2,789;   29,100;    0,000;-26,31100
 358,60;    5,212;    1,200;    0,000; 4,01200
 358,61;    0,304;  -38,300;    0,000;38,60400
 358,62;    3,489;   -6,700;    0,000;10,18900
 358,64;    3,566;  -22,900;    0,000;26,46600
 358,65;   -0,145;  -38,800;    0,000;38,65500
 358,66;    0,568;  -12,100;    0,000;12,66800
 358,67;    3,040;  -10,200;    0,000;13,24000
 358,69;    1,688;  -51,700;    0,000;53,38800
 358,70;    1,878;  -12,600;    0,000;14,47800
 358,71;   -0,135;  -33,400;    0,000;33,26500
 358,73;    2,996;    7,700;    0,000;-4,70400
 358,74;   -0,090;  -73,900;    0,000;73,81000
 358,75;    1,222;  -60,700;    0,000;61,92200
 358,76;    0,398;  -48,400;    0,000;48,79800
 358,78;    3,647;   -6,800;    0,000;10,44700
 358,79;    0,419;    5,400;    0,000;-4,98100
 358,80;    3,015;  -14,800;    0,000;17,81500
 358,82;    0,326;  -66,000;    0,000;66,32600
 358,83;    1,496;  -48,300;    0,000;49,79600
 358,84;    1,409;  -31,400;    0,000;32,80900
 358,85;    4,600;   -6,700;    0,000;11,30000
 358,87;    2,404;  -16,700;    0,000;19,10400
 358,88;    2,318;  -30,900;    0,000;33,21800
 358,89;    1,745;   46,700;    0,000;-44,95500
 358,91;    5,390;  280,700;    0,000;-275,31000
 358,92;    1,583;   14,300;    0,000;-12,71700
 358,93;    2,939;  -45,000;    0,000;47,93900
 358,94;    1,260;  -10,000;    0,000;11,26000
 358,96;    4,078;    8,800;    0,000;-4,72200
 358,97;    1,576;  -67,700;    0,000;69,27600
 358,98;    4,748;   22,400;    0,000;-17,65200
 359,00;    6,264;   11,000;    0,000;-4,73600
 359,01;    4,338;   33,900;    0,000;-29,56200
 359,02;    1,271;  -27,100;    0,000;28,37100
 359,03;    3,851;  -42,800;    0,000;46,65100
 359,05;    4,759;   30,900;    0,000;-26,14100
 359,06;    2,983;  -63,200;    0,000;66,18300
 359,07;    2,296;  -46,500;    0,000;48,79600
 359,09;    4,081;  -37,700;    0,000;41,78100
 359,10;    1,144;   16,600;    0,000;-15,45600
 359,11;    3,953;    4,600;    0,000;-0,64700
 359,12;    2,795;  -71,400;    0,000;74,19500
 359,14;    5,682;   18,200;    0,000;-12,51800
 359,15;    1,807;    9,000;    0,000;-7,19300
 359,16;    3,193;  -33,400;    0,000;36,59300
 359,18;    6,292;   -4,200;    0,000;10,49200
 359,19;    4,144;   -9,100;    0,000;13,24400
 359,20;    2,948;   -7,600;    0,000;10,54800
 359,21;    3,716;  -42,200;    0,000;45,91600
 359,23;    2,499;  -53,700;    0,000;56,19900
 359,24;    3,333;   15,400;    0,000;-12,06700
 359,25;    0,240;  -11,300;    0,000;11,54000
 359,26;    3,758;   -5,700;    0,000; 9,45800
 359,28;    2,923;  -26,400;    0,000;29,32300
 359,29;    3,492;   38,500;    0,000;-35,00800
 359,30;   -0,644;   41,300;    0,000;-41,94400
 359,32;    2,929;    3,900;    0,000;-0,97100
 359,33;    0,068;  -16,600;    0,000;16,66800
 359,34;    5,888;  -20,200;    0,000;26,08800
 359,35;    3,844;   34,300;    0,000;-30,45600
 359,37;    3,124;   -9,100;    0,000;12,22400
 359,38;    3,832;  -58,600;    0,000;62,43200
 359,39;    3,325;  -11,000;    0,000;14,32500
 359,40;    2,675;   22,300;    0,000;-19,62500
 359,42;    3,436;  -40,700;    0,000;44,13600
 359,43;    0,761;   -0,800;    0,000; 1,56100
 359,44;    3,818;   13,500;    0,000;-9,68200
 359,46;    3,443;  -20,400;    0,000;23,84300
 359,47;    3,719;   -6,200;    0,000; 9,91900
 359,48;    4,942;  -13,200;    0,000;18,14200
 359,49;    2,340;  -22,100;    0,000;24,44000
 359,51;    2,430;  -41,200;    0,000;43,63000
 359,52;    6,025;   -4,500;    0,000;10,52500
 359,53;    1,127;  -30,500;    0,000;31,62700
 359,54;    5,557;  -39,100;    0,000;44,65700
 359,56;    1,867;    6,200;    0,000;-4,33300
 359,57;    4,642;   15,700;    0,000;-11,05800
 359,58;    0,871;  -22,600;    0,000;23,47100
 359,60;    3,564;   -1,400;    0,000; 4,96400
 359,61;    3,407;  -18,100;    0,000;21,50700
 359,62;    6,154;   59,200;    0,000;-53,04600
 359,63;    3,664;   -0,800;    0,000; 4,46400
 359,65;    7,398;   -2,000;    0,000; 9,39800
 359,66;    4,421;  -48,400;    0,000;52,82100
 359,67;    6,071;  -25,600;    0,000;31,67100
 359,68;    3,772;  -35,800;    0,000;39,57200
 359,70;    4,122;  -49,200;    0,000;53,32200
 359,71;    3,511;  -77,000;    0,000;80,51100
 359,72;    4,719;    1,500;    0,000; 3,21900
 359,74;    2,702;  -33,900;    0,000;36,60200
 359,75;    5,650;  -32,300;    0,000;37,95000
 359,76;    2,215;   -2,500;    0,000; 4,71500
 359,77;    5,265;   16,000;    0,000;-10,73500
 359,79;    3,778;   -2,000;    0,000; 5,77800
 359,80;    6,163;   -7,400;    0,000;13,56300
 359,81;    2,508;  -42,000;    0,000;44,50800
 359,82;    5,437;  -69,000;    0,000;74,43700
 359,84;    1,065;  -44,900;    0,000;45,96500
 359,85;    3,315;  -30,300;    0,000;33,61500
 359,86;    3,619;   23,700;    0,000;-20,08100
 359,87;    5,383;  -26,900;    0,000;32,28300
 359,89;    5,012;  -44,200;    0,000;49,21200
 359,90;    5,231;   -8,500;    0,000;13,73100
 359,91;    1,859;  -67,200;    0,000;69,05900
 359,92;    2,279;   -1,000;    0,000; 3,27900
 359,94;    2,796;  -88,200;    0,000;90,99600
 359,95;    6,307;  -43,700;    0,000;50,00700
 359,96;    4,801;  -36,400;    0,000;41,20100
 359,98;    4,227;  -15,900;    0,000;20,12700
 359,99;    3,993;  -29,400;    0,000;33,39300
 360,00;    7,965;   27,000;    0,000;-19,03500
 360,01;    4,555;  -44,900;    0,000;49,45500
 360,03;    6,415;   56,000;    0,000;-49,58500
 360,04;    4,569;  -32,800;    0,000;37,36900
 360,05;    7,171;   48,000;    0,000;-40,82900
 360,06;    5,319;  -20,300;    0,000;25,61900
 360,08;    5,674;  -30,200;    0,000;35,87400
 360,09;    3,630;   11,000;    0,000;-7,37000
 360,10;    7,249;  -18,900;    0,000;26,14900
 360,11;    3,899;  -22,700;    0,000;26,59900
 360,13;    5,077;   58,200;    0,000;-53,12300
 360,14;    2,319;  -40,900;    0,000;43,21900
 360,15;    4,988;    4,900;    0,000; 0,08800
 360,16;    3,846;    3,900;    0,000;-0,05400
 360,18;    5,308;  -28,700;    0,000;34,00800
 360,19;    5,821;  -25,300;    0,000;31,12100
 360,20;    6,065;   25,300;    0,000;-19,23500
 360,21;    2,438;   -8,100;    0,000;10,53800
 360,23;    4,554;    5,000;    0,000;-0,44600
 360,24;    6,245;  -37,400;    0,000;43,64500
 360,25;    5,935;   22,800;    0,000;-16,86500
 360,26;    1,731;   -5,700;    0,000; 7,43100
 360,28;    4,696;  -31,300;    0,000;35,99600
 360,29;   -0,815;  -10,800;    0,000; 9,98500
 360,30;    4,816;  -30,500;    0,000;35,31600
 360,31;    3,063;   22,600;    0,000;-19,53700
 360,33;    3,226;  -36,000;    0,000;39,22600
 360,34;    1,797;  -66,100;    0,000;67,89700
 360,35;    3,247;   28,900;    0,000;-25,65300
 360,36;    3,544;  -67,400;    0,000;70,94400
 360,38;    3,438;  -28,700;    0,000;32,13800
 360,39;    3,382;  -44,300;    0,000;47,68200
 360,40;    5,193;  -32,900;    0,000;38,09300
 360,41;    1,683;   16,200;    0,000;-14,51700
 360,43;    3,403;    1,100;    0,000; 2,30300
 360,44;    1,456;  -21,700;    0,000;23,15600
 360,45;    7,407;   71,900;    0,000;-64,49300
 360,46;    2,806;   51,800;    0,000;-48,99400
 360,48;    6,181;   -9,700;    0,000;15,88100
 360,49;    3,005;  -65,400;    0,000;68,40500
 360,50;    1,577;    2,600;    0,000;-1,02300
 360,51;    1,847;  -50,100;    0,000;51,94700
 360,53;    5,665;   18,600;    0,000;-12,93500
 360,54;    3,446;  -28,700;    0,000;32,14600
 360,55;    2,477;  -32,600;    0,000;35,07700
 360,56;    1,835;  -37,200;    0,000;39,03500
 360,58;    2,869;  -17,100;    0,000;19,96900
 360,59;    1,356;  -30,900;    0,000;32,25600
 360,60;    5,409;  -27,700;    0,000;33,10900
 360,61;    1,644;  -52,200;    0,000;53,84400
 360,63;    2,708;  -25,200;    0,000;27,90800
 360,64;    2,137;  -42,600;    0,000;44,73700
 360,65;    4,721;    6,100;    0,000;-1,37900
 360,66;    2,174;  -55,800;    0,000;57,97400
 360,68;    7,415;    4,400;    0,000; 3,01500
 360,69;    1,582;  -40,100;    0,000;41,68200
 360,70;    5,483;    7,900;    0,000;-2,41700
 360,71;    2,390;  -34,600;    0,000;36,99000
 360,73;    2,926;   13,400;    0,000;-10,47400
 360,74;    5,284;   22,900;    0,000;-17,61600
 360,75;    4,861;   29,900;    0,000;-25,03900
 360,76;    3,121;   17,500;    0,000;-14,37900
 360,78;    2,953;  -53,100;    0,000;56,05300
 360,79;    2,641;  -74,400;    0,000;77,04100
 360,80;    3,846;   -6,700;    0,000;10,54600
 360,81;    1,822;    0,300;    0,000; 1,52200
 360,83;    6,784;    2,000;    0,000; 4,78400
 360,84;    6,757;  -42,000;    0,000;48,75700
 360,85;    6,329;  -14,900;    0,000;21,22900
 360,86;    2,476;  -41,900;    0,000;44,37600
 360,87;    6,216;   23,600;    0,000;-17,38400
 360,89;    6,618;  -20,500;    0,000;27,11800
 360,90;    7,946;  -43,200;    0,000;51,14600
 360,91;    7,771;   52,100;    0,000;-44,32900
 360,92;    8,507;  -20,800;    0,000;29,30700
 360,94;   10,573;  -45,400;    0,000;55,97300
 360,95;   11,688;    6,500;    0,000; 5,18800
 360,96;   15,856;  -19,200;    0,000;35,05600
 360,97;   22,217;  -32,400;    0,000;54,61700
 360,99;   32,274;  -26,800;    0,000;59,07400
 361,00;   53,208;   25,600;    0,000;27,60800
 361,01;   83,736;    1,600;    0,000;82,13600
 361,02;  140,925;  -45,600;    0,000;186,52500
 361,04;  246,390;    0,100;    0,000;246,29000
 361,05;  392,621;   42,100;    0,000;350,52100
 361,06;  575,465;   42,900;    0,000;532,56500
 361,07;  756,255;  -46,100;    0,000;802,35500
 361,09; 1081,548;  -36,600;    0,000;1118,14800
 361,10; 1979,923;   19,500;    0,000;1960,42300
 361,11; 2856,400;    7,300;    0,000;2849,10000
 361,12; 2732,899;  -39,300;    0,000;2772,19900
 361,13; 1473,753;  -55,100;    0,000;1528,85300
 361,15;  414,571;    4,100;    0,000;410,47100
 361,16;  144,052;  -32,400;    0,000;176,45200
 361,17;   77,510;  -18,200;    0,000;95,71000
 361,18;   62,762;  -54,500;    0,000;117,26200
 361,20;   47,245;  -29,800;    0,000;77,04500
 361,21;   37,702;   11,200;    0,000;26,50200
 361,22;   37,845;  -33,100;    0,000;70,94500
 361,23;   42,842;  -23,000;    0,000;65,84200
 361,25;   54,638;  -37,700;    0,000;92,33800
 361,26;   79,635;  -30,300;    0,000;109,93500
 361,27;  135,238;   32,100;    0,000;103,13800
 361,28;  210,030;  -40,200;    0,000;250,23000
 361,29;  290,551;  -69,900;    0,000;360,45100
 361,31;  381,679;  -41,100;    0,000;422,77900
 361,32;  516,209;  -23,000;    0,000;539,20900
 361,33;  898,439;  -29,900;    0,000;928,33900
 361,34; 1430,737;  -27,300;    0,000;1458,03700
 361,36; 1402,880;  -39,900;    0,000;1442,78000
 361,37;  855,000;   -2,100;    0,000;857,10000
 361,38;  249,808;  -51,200;    0,000;301,00800
 361,39;   79,503;   -1,400;    0,000;80,90300
 361,40;   43,329;  -47,800;    0,000;91,12900
 361,42;   33,793;   -8,700;    0,000;42,49300
 361,43;   33,692;  -42,500;    0,000;76,19200
 361,44;   36,137;   -3,800;    0,000;39,93700
 361,45;   40,172;  -71,400;    0,000;111,57200
 361,47;   44,729;   16,900;    0,000;27,82900
 361,48;   62,383;  -68,600;    0,000;130,98300
 361,49;  100,227;  -28,100;    0,000;128,32700
 361,50;  142,582;  -17,000;    0,000;159,58200
 361,52;  129,876;  -30,400;    0,000;160,27600
 361,53;   72,629;  -45,600;    0,000;118,22900
 361,54;   26,302;    1,800;    0,000;24,50200
 361,55;   11,095;  -66,300;    0,000;77,39500
 361,56;    8,944;    8,500;    0,000; 0,44400
 361,58;    8,942;   71,600;    0,000;-62,65800
 361,59;    7,715;  -45,100;    0,000;52,81500
 361,60;    7,913;  -29,800;    0,000;37,71300
 361,61;    7,108;  -35,900;    0,000;43,00800
 361,63;    6,606;   -2,900;    0,000; 9,50600
 361,64;    7,187;  -13,100;    0,000;20,28700
 361,65;    4,806;  -30,100;    0,000;34,90600
 361,66;    5,591;  -50,600;    0,000;56,19100
 361,67;    6,978;   10,300;    0,000;-3,32200
 361,69;    6,955;  -20,400;    0,000;27,35500
 361,70;    0,716;  -13,100;    0,000;13,81600
 361,71;    5,402;  -52,100;    0,000;57,50200
 361,72;    5,984;    2,300;    0,000; 3,68400
 361,74;    4,233;  -32,900;    0,000;37,13300
 361,75;    4,809;  -55,200;    0,000;60,00900
 361,76;    6,541;  -32,200;    0,000;38,74100
 361,77;    3,072;  -13,500;    0,000;16,57200
 361,78;    5,459;  -44,300;    0,000;49,75900
 361,80;    5,311;   11,100;    0,000;-5,78900
 361,81;    4,936;  -38,500;    0,000;43,43600
 361,82;    5,308;  -42,300;    0,000;47,60800
 361,83;    4,377;   37,200;    0,000;-32,82300
 361,84;    2,775;  -20,600;    0,000;23,37500
 361,86;    3,162;   -6,900;    0,000;10,06200
 361,87;    2,722;   11,700;    0,000;-8,97800
 361,88;    4,904;   44,000;    0,000;-39,09600
 361,89;    3,272;  -77,400;    0,000;80,67200
 361,91;    3,324;   43,000;    0,000;-39,67600
 361,92;    1,589;  -34,400;    0,000;35,98900
 361,93;    6,367;   23,000;    0,000;-16,63300
 361,94;    3,956;  -55,400;    0,000;59,35600
 361,95;    5,371;  -19,400;    0,000;24,77100
 361,97;    3,640;  -57,300;    0,000;60,94000
 361,98;    4,400;    7,500;    0,000;-3,10000
 361,99;    4,318;  -14,500;    0,000;18,81800
 362,00;    6,999;   73,100;    0,000;-66,10100
 362,01;    2,386;  -37,700;    0,000;40,08600
 362,03;    5,093;  -27,600;    0,000;32,69300
 362,04;    4,156;  -78,200;    0,000;82,35600
 362,05;    3,982;   -8,800;    0,000;12,78200
 362,06;    4,335;  -21,700;    0,000;26,03500
 362,08;    4,272;    2,100;    0,000; 2,17200
 362,09;    4,558;  -38,600;    0,000;43,15800
 362,10;    2,842;  -79,200;    0,000;82,04200
 362,11;    4,330;   18,700;    0,000;-14,37000
 362,12;    7,524;  -14,100;    0,000;21,62400
 362,14;    3,228;    3,100;    0,000; 0,12800
 362,15;    2,817;  -48,100;    0,000;50,91700
 362,16;    4,011;  -13,300;    0,000;17,31100
 362,17;    4,556;   -9,800;    0,000;14,35600
 362,18;    3,764;    0,000;    0,000; 3,76400
 362,20;    4,099;  -27,700;    0,000;31,79900
 362,21;    2,725;  -18,600;    0,000;21,32500
 362,22;    5,980;   -3,300;    0,000; 9,28000
 362,23;    3,782;  -19,900;    0,000;23,68200
 362,24;    4,938;  -82,600;    0,000;87,53800
 362,26;    3,478;  -46,100;    0,000;49,57800
 362,27;    3,665;  -20,500;    0,000;24,16500
 362,28;    3,331;  -22,000;    0,000;25,33100
 362,29;    4,375;   -8,000;    0,000;12,37500
 362,30;    2,690;  -18,300;    0,000;20,99000
 362,32;    6,032;  -23,600;    0,000;29,63200
 362,33;    3,665;   25,300;    0,000;-21,63500
 362,34;    4,984;  -35,000;    0,000;39,98400
 362,35;    4,107;  -13,600;    0,000;17,70700
 362,36;    3,969;  -77,800;    0,000;81,76900
 362,38;    3,541;  -46,800;    0,000;50,34100
 362,39;    3,968;  -70,400;    0,000;74,36800
 362,40;    3,083;  -65,100;    0,000;68,18300
 362,41;    3,061;  -22,500;    0,000;25,56100
 362,42;    2,570;  -53,200;    0,000;55,77000
 362,44;    4,782;  -20,000;    0,000;24,78200
 362,45;    4,424;  -51,700;    0,000;56,12400
 362,46;    5,242;  -14,300;    0,000;19,54200
 362,47;    2,522;  -51,800;    0,000;54,32200
 362,48;    5,502;   43,600;    0,000;-38,09800
 362,50;    2,088;  -39,600;    0,000;41,68800
 362,51;    4,065;    4,100;    0,000;-0,03500
 362,52;    2,333;  -61,600;    0,000;63,93300
 362,53;    3,793;  -35,500;    0,000;39,29300
 362,54;    2,872;  -19,000;    0,000;21,87200
 362,56;    6,219;   67,800;    0,000;-61,58100
 362,57;    3,676;   -5,800;    0,000; 9,47600
 362,58;    3,717;   21,500;    0,000;-17,78300
 362,59;    2,455;  -65,500;    0,000;67,95500
 362,60;    5,518;  -13,600;    0,000;19,11800
 362,62;    5,032;  -56,000;    0,000;61,03200
 362,63;    7,048;  -40,000;    0,000;47,04800
 362,64;    3,592;  -46,600;    0,000;50,19200
 362,65;    5,613;   41,100;    0,000;-35,48700
 362,66;    4,551;  -23,500;    0,000;28,05100
 362,68;    6,556;   30,200;    0,000;-23,64400
 362,69;    4,921;  -32,000;    0,000;36,92100
 362,70;    5,107;   24,400;    0,000;-19,29300
 362,71;    1,592;  -34,400;    0,000;35,99200
 362,72;    3,910;  -32,800;    0,000;36,71000
 362,74;    4,913;    8,800;    0,000;-3,88700
 362,75;    3,616;  -33,800;    0,000;37,41600
 362,76;    3,203;  -55,900;    0,000;59,10300
 362,77;    6,641;   -5,000;    0,000;11,64100
 362,78;    1,792;   14,000;    0,000;-12,20800
 362,80;    5,923;  -16,800;    0,000;22,72300
 362,81;    4,418;  -12,700;    0,000;17,11800
 362,82;    3,804;  -29,100;    0,000;32,90400
 362,83;    0,258;    6,300;    0,000;-6,04200
 362,84;    5,667;   53,800;    0,000;-48,13300
 362,86;    2,637;    0,500;    0,000; 2,13700
 362,87;    5,770;  -37,500;    0,000;43,27000
 362,88;    4,882;  -21,900;    0,000;26,78200
 362,89;    2,505;  -68,600;    0,000;71,10500
 362,90;    3,485;  -58,800;    0,000;62,28500
 362,92;    3,935;    8,600;    0,000;-4,66500
 362,93;    1,598;  -51,700;    0,000;53,29800
 362,94;    2,314;   10,900;    0,000;-8,58600
 362,95;    0,793;   73,300;    0,000;-72,50700
 362,96;    3,624;  -12,400;    0,000;16,02400
 362,97;    3,471;    1,000;    0,000; 2,47100
 362,99;    3,459;   -9,500;    0,000;12,95900
 363,00;    2,231;  -27,600;    0,000;29,83100
 363,01;    5,590;  -55,900;    0,000;61,49000
 363,02;    1,456;  -57,700;    0,000;59,15600
 363,03;    3,454;  -17,900;    0,000;21,35400
 363,05;   -0,189;  -34,400;    0,000;34,21100
 363,06;    4,894;   18,200;    0,000;-13,30600
 363,07;   -1,166;  -42,100;    0,000;40,93400
 363,08;    3,596;  -11,400;    0,000;14,99600
 363,09;    2,818;   -0,900;    0,000; 3,71800
 363,11;    3,421;  -40,600;    0,000;44,02100
 363,12;    3,538;   28,400;    0,000;-24,86200
 363,13;   -0,100;  -18,500;    0,000;18,40000
 363,14;    0,998;  -73,900;    0,000;74,89800
 363,15;    2,568;  -27,200;    0,000;29,76800
 363,16;    0,604;  -14,700;    0,000;15,30400
 363,18;    3,179;   24,600;    0,000;-21,42100
 363,19;    0,602;  -57,500;    0,000;58,10200
 363,20;    3,131;  -13,800;    0,000;16,93100
 363,21;    0,329;  -79,300;    0,000;79,62900
 363,22;    1,186;   53,400;    0,000;-52,21400
 363,24;    3,834;   41,100;    0,000;-37,26600
 363,25;    5,118;  -13,500;    0,000;18,61800
 363,26;    2,106;  -37,200;    0,000;39,30600
 363,27;    3,709;  -32,000;    0,000;35,70900
 363,28;    2,892;  -39,800;    0,000;42,69200
 363,29;    2,605;  -60,400;    0,000;63,00500
 363,31;    3,074;  -73,300;    0,000;76,37400
 363,32;    2,002;   -3,200;    0,000; 5,20200
 363,33;    3,035;  -27,600;    0,000;30,63500
 363,34;    1,343;  -31,700;    0,000;33,04300
 363,35;    0,109;  -43,300;    0,000;43,40900
 363,36;    5,161;  -15,400;    0,000;20,56100
 363,38;    1,101;   15,200;    0,000;-14,09900
 363,39;    4,114;  223,100;    0,000;-218,98600
 363,40;    1,156;  -16,100;    0,000;17,25600
 363,41;    5,282;   78,900;    0,000;-73,61800
 363,42;    1,143;  -30,200;    0,000;31,34300
 363,44;    1,063;  -34,000;    0,000;35,06300
 363,45;    0,447;  -29,100;    0,000;29,54700
 363,46;    4,741;   -9,200;    0,000;13,94100
 363,47;    3,015;  -50,900;    0,000;53,91500
 363,48;    3,248;  -40,200;    0,000;43,44800
 363,49;    0,750;  -63,100;    0,000;63,85000
 363,51;    3,575;  -12,700;    0,000;16,27500
 363,52;   -0,225;  -49,000;    0,000;48,77500
 363,53;    2,937;   -1,000;    0,000; 3,93700
 363,54;    1,475;  -60,100;    0,000;61,57500
 363,55;    2,391;  -43,500;    0,000;45,89100
 363,56;    1,604;   26,900;    0,000;-25,29600
 363,58;    3,274;  -15,900;    0,000;19,17400
 363,59;   -0,389;  -95,600;    0,000;95,21100
 363,60;    0,867;   13,700;    0,000;-12,83300
 363,61;    0,872;  -71,500;    0,000;72,37200
 363,62;    3,536;   12,300;    0,000;-8,76400
 363,64;    3,841;    5,100;    0,000;-1,25900
 363,65;    4,085;   38,700;    0,000;-34,61500
 363,66;    2,204;  -41,500;    0,000;43,70400
 363,67;    1,291;  -17,000;    0,000;18,29100
 363,68;    1,100;    8,700;    0,000;-7,60000
 363,69;    2,041;  -31,400;    0,000;33,44100
 363,71;   -0,060;  -24,000;    0,000;23,94000
 363,72;    1,038;  -16,300;    0,000;17,33800
 363,73;    3,521;   48,100;    0,000;-44,57900
 363,74;    2,187;  -64,800;    0,000;66,98700
 363,75;    0,332;    1,900;    0,000;-1,56800
 363,76;    2,494;  -27,900;    0,000;30,39400
 363,78;    1,626;  -62,200;    0,000;63,82600
 363,79;    2,357;   -7,000;    0,000; 9,35700
 363,80;    0,383;  -22,400;    0,000;22,78300
 363,81;    5,122;  -29,600;    0,000;34,72200
 363,82;    1,108;  -44,500;    0,000;45,60800
 363,83;    3,101;  -35,300;    0,000;38,40100
 363,85;    1,709;   19,700;    0,000;-17,99100
 363,86;    4,291;   20,300;    0,000;-16,00900
 363,87;    0,759;  -29,800;    0,000;30,55900
 363,88;    2,649;   42,400;    0,000;-39,75100
 363,89;   -0,279;  -23,800;    0,000;23,52100
 363,90;    3,833;  -50,900;    0,000;54,73300
 363,92;    1,455;  -32,200;    0,000;33,65500
 363,93;    1,782;    4,800;    0,000;-3,01800
 363,94;    2,066;   41,800;    0,000;-39,73400
 363,95;    2,897;  -22,800;    0,000;25,69700
 363,96;    0,994;  -31,400;    0,000;32,39400
 363,97;    3,492;   -4,700;    0,000; 8,19200
 363,99;    3,201;  -14,500;    0,000;17,70100
 364,00;    3,493;    1,700;    0,000; 1,79300
 364,01;    0,485;  -66,800;    0,000;67,28500
 364,02;    2,425;  -10,500;    0,000;12,92500
 364,03;    1,102;    4,800;    0,000;-3,69800
 364,04;    1,691;  -25,200;    0,000;26,89100
 364,05;   -1,088;  -39,900;    0,000;38,81200
 364,07;    1,174;  -63,900;    0,000;65,07400
 364,08;    1,080;  -57,300;    0,000;58,38000
 364,09;    2,596;  -16,800;    0,000;19,39600
 364,10;    1,240;  -28,100;    0,000;29,34000
 364,11;    1,199;  -41,300;    0,000;42,49900
 364,12;    2,813;  -27,900;    0,000;30,71300
 364,14;    1,564;  -35,400;    0,000;36,96400
 364,15;    0,457;  -63,700;    0,000;64,15700
 364,16;    2,234;  -26,200;    0,000;28,43400
 364,17;    1,465;   15,800;    0,000;-14,33500
 364,18;    3,507;  -47,300;    0,000;50,80700
 364,19;   -0,004;  -46,700;    0,000;46,69600
 364,21;    1,344;   11,300;    0,000;-9,95600
 364,22;    2,523;  -13,600;    0,000;16,12300
 364,23;    2,212;   15,000;    0,000;-12,78800
 364,24;    0,179;   25,700;    0,000;-25,52100
 364,25;    2,501;  -28,800;    0,000;31,30100
 364,26;    2,882;   34,100;    0,000;-31,21800
 364,27;    0,610;   -3,700;    0,000; 4,31000
 364,29;   -9,674;  -25,300;    0,000;15,62600
 364,30;   30,722;    0,300;    0,000;30,42200
 364,31;   61,434;  -46,600;    0,000;108,03400
 364,32;    4,242;   19,800;    0,000;-15,55800
 364,33;    0,714;  -65,100;    0,000;65,81400
 364,34;    2,670;   20,800;    0,000;-18,13000
 364,36;    1,083;   -4,800;    0,000; 5,88300
 364,37;    3,513;   12,700;    0,000;-9,18700
 364,38;    1,644;  -51,100;    0,000;52,74400
 364,39;    4,200;   39,400;    0,000;-35,20000
 364,40;    1,445;  -92,200;    0,000;93,64500
 364,41;    4,063;   24,600;    0,000;-20,53700
 364,42;    1,806;  -27,600;    0,000;29,40600
 364,44;    3,506;   33,900;    0,000;-30,39400
 364,45;    1,597;  -37,700;    0,000;39,29700
 364,46;    2,869;    3,200;    0,000;-0,33100
 364,47;    2,013;  -34,300;    0,000;36,31300
 364,48;    2,324;  -69,800;    0,000;72,12400
 364,49;    0,502;  -59,400;    0,000;59,90200
 364,51;    0,388;  -40,900;    0,000;41,28800
 364,52;    2,777;  -23,700;    0,000;26,47700
 364,53;    0,877;   32,300;    0,000;-31,42300
 364,54;    0,874;  -60,700;    0,000;61,57400
 364,55;    3,224;   -7,100;    0,000;10,32400
 364,56;    0,747;  -15,100;    0,000;15,84700
 364,57;    4,330;  -15,400;    0,000;19,73000
 364,59;    0,151;  -25,400;    0,000;25,55100
 364,60;    3,252;    8,900;    0,000;-5,64800
 364,61;    1,002;  -59,800;    0,000;60,80200
 364,62;    3,033;  -13,900;    0,000;16,93300
 364,63;    1,247;    0,900;    0,000; 0,34700
 364,64;    2,025;  -21,300;    0,000;23,32500
 364,65;   -1,017;  -33,500;    0,000;32,48300
 364,67;    1,635;   27,000;    0,000;-25,36500
 364,68;    1,629;  -23,600;    0,000;25,22900
 364,69;    2,351;  -47,200;    0,000;49,55100
 364,70;    1,095;  -74,300;    0,000;75,39500
 364,71;    2,193;    2,500;    0,000;-0,30700
 364,72;    0,974;    4,800;    0,000;-3,82600
 364,73;    5,255;  -29,600;    0,000;34,85500
 364,75;    0,854;  -45,800;    0,000;46,65400
 364,76;    2,193;   19,900;    0,000;-17,70700
 364,77;    2,634;  -14,500;    0,000;17,13400
 364,78;    1,553;   26,000;    0,000;-24,44700
 364,79;    1,135;  -52,400;    0,000;53,53500
 364,80;    1,849;   -7,100;    0,000; 8,94900
 364,81;    3,495;  -30,600;    0,000;34,09500
 364,83;    2,566;  -17,400;    0,000;19,96600
 364,84;   -1,232;   -9,300;    0,000; 8,06800
 364,85;    3,695;   33,300;    0,000;-29,60500
 364,86;    1,085;  -46,200;    0,000;47,28500
 364,87;    1,418;  -85,600;    0,000;87,01800
 364,88;   -0,090;  -34,000;    0,000;33,91000
 364,89;    3,957;   -9,000;    0,000;12,95700
 364,91;    1,221;  -30,600;    0,000;31,82100
 364,92;    3,340;  -33,800;    0,000;37,14000
 364,93;    0,855;   15,900;    0,000;-15,04500
 364,94;    2,274;  -43,400;    0,000;45,67400
 364,95;    1,069;  -44,500;    0,000;45,56900
 364,96;    2,444;   34,400;    0,000;-31,95600
 364,97;    1,654;  -25,600;    0,000;27,25400
 364,99;    6,016;   33,800;    0,000;-27,78400
 365,00;    2,228;  -27,500;    0,000;29,72800
 365,01;    7,165;   20,200;    0,000;-13,03500
 365,02;    2,928;    6,100;    0,000;-3,17200
 365,03;    1,341;  -20,700;    0,000;22,04100
 365,04;    1,165;  -35,100;    0,000;36,26500
 365,05;    1,553;  -22,900;    0,000;24,45300
 365,06;   -2,307;  -30,200;    0,000;27,89300
 365,08;    2,263;  -20,500;    0,000;22,76300
 365,09;   -1,386;  -62,200;    0,000;60,81400
 365,10;    1,938;  -31,600;    0,000;33,53800
 365,11;    2,014;  -10,200;    0,000;12,21400
 365,12;    1,122;  -40,400;    0,000;41,52200
 365,13;    1,664;   -8,100;    0,000; 9,76400
 365,14;    0,686;   38,300;    0,000;-37,61400
 365,16;    0,380;  -40,400;    0,000;40,78000
 365,17;    1,512;   -0,700;    0,000; 2,21200
 365,18;   -0,935;  -13,300;    0,000;12,36500
 365,19;    1,851;  -11,900;    0,000;13,75100
 365,20;   -0,288;  -54,300;    0,000;54,01200
 365,21;    0,971;   12,200;    0,000;-11,22900
 365,22;    0,249;  -55,800;    0,000;56,04900
 365,23;    3,607;  -27,000;    0,000;30,60700
 365,25;   -0,389;  -90,500;    0,000;90,11100
 365,26;    3,153;   33,500;    0,000;-30,34700
 365,27;    1,991;  -11,900;    0,000;13,89100
 365,28;    1,335;  -49,500;    0,000;50,83500
 365,29;    1,243;  -42,700;    0,000;43,94300
 365,30;    2,027;  -10,300;    0,000;12,32700
 365,31;    0,435;  -45,900;    0,000;46,33500
 365,32;    1,188;  -51,700;    0,000;52,88800
 365,34;    2,954;  -26,900;    0,000;29,85400
 365,35;    1,387;  -15,900;    0,000;17,28700
 365,36;   -0,090;  -17,300;    0,000;17,21000
 365,37;    3,316;    1,100;    0,000; 2,21600
 365,38;    1,685;  -48,300;    0,000;49,98500
 365,39;    4,920;  -21,800;    0,000;26,72000
 365,40;    0,449;  -11,000;    0,000;11,44900
 365,41;    3,132;    1,300;    0,000; 1,83200
 365,43;    2,778;  -56,200;    0,000;58,97800
 365,44;    1,791;  -50,400;    0,000;52,19100
 365,45;    0,025;   24,800;    0,000;-24,77500
 365,46;    4,058;  -28,800;    0,000;32,85800
 365,47;   -0,489;  -36,700;    0,000;36,21100
 365,48;    1,247;   10,800;    0,000;-9,55300
 365,49;    0,491;    5,500;    0,000;-5,00900
 365,50;    2,884;   18,200;    0,000;-15,31600
 365,52;    2,095;    1,500;    0,000; 0,59500
 365,53;    2,902;    1,700;    0,000; 1,20200
 365,54;   -0,683;  -41,000;    0,000;40,31700
 365,55;    3,302;   77,100;    0,000;-73,79800
 365,56;    1,383;   36,000;    0,000;-34,61700
 365,57;    1,963;  -13,900;    0,000;15,86300
 365,58;   -0,250;  -54,200;    0,000;53,95000
 365,59;    2,852;  -40,500;    0,000;43,35200
 365,61;    1,369;  -70,800;    0,000;72,16900
 365,62;    2,098;  -82,100;    0,000;84,19800
 365,63;    2,181;  -50,800;    0,000;52,98100
 365,64;    2,028;  -33,000;    0,000;35,02800
 365,65;   -0,336;    4,500;    0,000;-4,83600
 365,66;    0,877;   -4,500;    0,000; 5,37700
 365,67;    2,891;   37,000;    0,000;-34,10900
 365,68;    3,868;   16,100;    0,000;-12,23200
 365,70;    2,650;  -34,700;    0,000;37,35000
 365,71;    2,944;   13,300;    0,000;-10,35600
 365,72;    2,077;   30,900;    0,000;-28,82300
 365,73;    4,896;   33,500;    0,000;-28,60400
 365,74;    1,602;   -6,300;    0,000; 7,90200
 365,75;    2,097;  -62,800;    0,000;64,89700
 365,76;   -0,425;  -54,900;    0,000;54,47500
 365,77;    0,629;  -11,300;    0,000;11,92900
 365,78;    0,274;    8,600;    0,000;-8,32600
 365,80;    1,669;   31,300;    0,000;-29,63100
 365,81;    1,244;  -33,900;    0,000;35,14400
 365,82;    2,988;  -11,000;    0,000;13,98800
 365,83;    1,853;    3,900;    0,000;-2,04700
 365,84;    2,609;   39,800;    0,000;-37,19100
 365,85;    1,187;   23,300;    0,000;-22,11300
 365,86;    2,546;  -71,200;    0,000;73,74600
 365,87;    3,218;  -21,700;    0,000;24,91800
 365,88;    2,083;   27,500;    0,000;-25,41700
 365,90;    2,699;   17,200;    0,000;-14,50100
 365,91;    2,826;  -37,800;    0,000;40,62600
 365,92;   -0,606;  -77,800;    0,000;77,19400
 365,93;    0,274;   35,300;    0,000;-35,02600
 365,94;    2,800;   25,400;    0,000;-22,60000
 365,95;    2,201;   18,000;    0,000;-15,79900
 365,96;    2,420;  -15,200;    0,000;17,62000
 365,97;    3,236;    0,900;    0,000; 2,33600
 365,98;    0,903;    9,000;    0,000;-8,09700
 366,00;    4,584;    2,600;    0,000; 1,98400
 366,01;   -0,824;  -40,400;    0,000;39,57600
 366,02;    1,225;   -9,100;    0,000;10,32500
 366,03;    1,174;   -3,200;    0,000; 4,37400
 366,04;    3,820;  -65,900;    0,000;69,72000
 366,05;    1,698;  -44,600;    0,000;46,29800
 366,06;    4,580;    9,700;    0,000;-5,12000
 366,07;    2,777;   -4,400;    0,000; 7,17700
 366,08;    0,863;  -14,200;    0,000;15,06300
 366,10;    1,980;  -82,300;    0,000;84,28000
 366,11;    1,983;   -3,800;    0,000; 5,78300
 366,12;    0,334;  -22,900;    0,000;23,23400
 366,13;    1,444;   30,100;    0,000;-28,65600
 366,14;    0,198;  -11,200;    0,000;11,39800
 366,15;    3,246;   -8,200;    0,000;11,44600
 366,16;    2,232;  -46,100;    0,000;48,33200
 366,17;    2,761;   44,000;    0,000;-41,23900
 366,18;    0,107;  -52,800;    0,000;52,90700
 366,19;    2,789;  -25,300;    0,000;28,08900
 366,21;    1,749;  -59,100;    0,000;60,84900
 366,22;    3,844;   22,200;    0,000;-18,35600
 366,23;    2,981;  -19,800;    0,000;22,78100
 366,24;    2,724;   40,700;    0,000;-37,97600
 366,25;    0,623;   14,300;    0,000;-13,67700
 366,26;    1,946;  -30,800;    0,000;32,74600
 366,27;    2,773;  -25,800;    0,000;28,57300
 366,28;    2,336;   23,600;    0,000;-21,26400
 366,29;    1,486;  -33,100;    0,000;34,58600
 366,31;    3,294;  -18,800;    0,000;22,09400
 366,32;   -0,002;   -5,500;    0,000; 5,49800
 366,33;    2,157;  -28,700;    0,000;30,85700
 366,34;    1,053;   -4,800;    0,000; 5,85300
 366,35;    3,612;   -2,900;    0,000; 6,51200
 366,36;    2,740;  -56,500;    0,000;59,24000
 366,37;    1,288;  -10,300;    0,000;11,58800
 366,38;    0,588;  -46,000;    0,000;46,58800
 366,39;    1,886;   35,000;    0,000;-33,11400
 366,40;    3,141;  -30,800;    0,000;33,94100
 366,41;    3,659;  -19,100;    0,000;22,75900
 366,43;    0,286;   51,200;    0,000;-50,91400
 366,44;    3,777;  -24,500;    0,000;28,27700
 366,45;    0,017;   19,900;    0,000;-19,88300
 366,46;    1,753;  -45,500;    0,000;47,25300
 366,47;    0,125;    3,500;    0,000;-3,37500
 366,48;    3,317;   -2,700;    0,000; 6,01700
 366,49;    1,534;  -42,100;    0,000;43,63400
 366,50;    0,835;    5,700;    0,000;-4,86500
 366,51;   -0,514;  -27,100;    0,000;26,58600
 366,52;    1,043;   14,600;    0,000;-13,55700
 366,54;    1,581;  -49,900;    0,000;51,48100
 366,55;    0,775;  -35,100;    0,000;35,87500
 366,56;    0,565;   -1,100;    0,000; 1,66500
 366,57;    2,173;  -21,700;    0,000;23,87300
 366,58;    1,524;  -59,600;    0,000;61,12400
 366,59;    2,590;  -29,100;    0,000;31,69000
 366,60;    1,046;   12,200;    0,000;-11,15400
 366,61;    1,069;   15,400;    0,000;-14,33100
 366,62;    0,465;  -26,100;    0,000;26,56500
 366,63;    0,870;  -38,200;    0,000;39,07000
 366,64;    1,974;   38,700;    0,000;-36,72600
 366,66;    3,079;   17,800;    0,000;-14,72100
 366,67;    2,059;    9,600;    0,000;-7,54100
 366,68;    2,384;    2,800;    0,000;-0,41600
 366,69;    2,043;   14,200;    0,000;-12,15700
 366,70;    2,677;   16,000;    0,000;-13,32300
 366,71;    1,333;  -15,600;    0,000;16,93300
 366,72;    0,856;   10,100;    0,000;-9,24400
 366,73;    1,124;    5,200;    0,000;-4,07600
 366,74;    1,590;  -26,900;    0,000;28,49000
 366,75;   -0,714;  -37,200;    0,000;36,48600
 366,76;    2,139;  -20,000;    0,000;22,13900
 366,78;    1,311;  -31,800;    0,000;33,11100
 366,79;    2,113;   35,900;    0,000;-33,78700
 366,80;    1,075;   15,700;    0,000;-14,62500
 366,81;    2,480;   56,100;    0,000;-53,62000
 366,82;   -0,510;  -16,900;    0,000;16,39000
 366,83;    3,251;  -21,300;    0,000;24,55100
 366,84;   -2,680;  -54,100;    0,000;51,42000
 366,85;    1,655;    2,100;    0,000;-0,44500
 366,86;    2,038;  -65,000;    0,000;67,03800
 366,87;    3,020;  -58,500;    0,000;61,52000
 366,88;    0,970;  -38,100;    0,000;39,07000
 366,89;    1,942;   23,400;    0,000;-21,45800
 366,91;    0,874;    9,200;    0,000;-8,32600
 366,92;    3,658;  -47,800;    0,000;51,45800
 366,93;   -0,171;    7,200;    0,000;-7,37100
 366,94;    0,920;   23,500;    0,000;-22,58000
 366,95;    0,896;  -62,600;    0,000;63,49600
 366,96;    1,931;   17,400;    0,000;-15,46900
 366,97;    2,518;  -18,800;    0,000;21,31800
 366,98;    3,007;   25,200;    0,000;-22,19300
 366,99;    1,571;    0,500;    0,000; 1,07100
 367,00;    2,837;   33,300;    0,000;-30,46300
 367,01;    1,754;   -8,500;    0,000;10,25400
 367,02;    3,551;   -6,000;    0,000; 9,55100
 367,04;   -1,345;  -77,300;    0,000;75,95500
 367,05;    0,607;  -14,800;    0,000;15,40700
 367,06;    2,496;  -21,200;    0,000;23,69600
 367,07;    4,056;   51,100;    0,000;-47,04400
 367,08;    0,579;   -5,200;    0,000; 5,77900
 367,09;    0,669;   29,700;    0,000;-29,03100
 367,10;    0,534;  -57,300;    0,000;57,83400
 367,11;    4,176;   58,500;    0,000;-54,32400
 367,12;    0,372;  -18,200;    0,000;18,57200
 367,13;    1,652;    3,700;    0,000;-2,04800
 367,14;    0,517;  -24,300;    0,000;24,81700
 367,15;    1,744;   41,800;    0,000;-40,05600
 367,16;    0,830;  -17,800;    0,000;18,63000
 367,18;    0,990;  -11,400;    0,000;12,39000
 367,19;   -0,645;  -64,800;    0,000;64,15500
 367,20;    0,602;  -38,500;    0,000;39,10200
 367,21;    0,471;    0,300;    0,000; 0,17100
 367,22;    3,371;   40,100;    0,000;-36,72900
 367,23;    1,657;  -23,900;    0,000;25,55700
 367,24;    3,067;   10,800;    0,000;-7,73300
 367,25;    0,374;   15,700;    0,000;-15,32600
 367,26;    2,380;   -4,600;    0,000; 6,98000
 367,27;   -1,607;  -31,000;    0,000;29,39300
 367,28;    2,039;   25,000;    0,000;-22,96100
 367,29;    1,664;  -36,800;    0,000;38,46400
 367,30;    2,767;  -30,100;    0,000;32,86700
 367,32;    1,639;  -68,200;    0,000;69,83900
 367,33;    2,721;   10,600;    0,000;-7,87900
 367,34;    1,695;   14,800;    0,000;-13,10500
 367,35;    1,681;   -8,800;    0,000;10,48100
 367,36;   -0,502;  -17,100;    0,000;16,59800
 367,37;    3,824;   -8,300;    0,000;12,12400
 367,38;    0,160;  -43,800;    0,000;43,96000
 367,39;    4,498;   58,700;    0,000;-54,20200
 367,40;    1,525;  -48,500;    0,000;50,02500
 367,41;    2,075;  -59,200;    0,000;61,27500
 367,42;    1,414;  -83,400;    0,000;84,81400
 367,43;    3,762;  -58,000;    0,000;61,76200
 367,44;    0,844;  -26,700;    0,000;27,54400
 367,45;    1,126;  -40,200;    0,000;41,32600
 367,47;    0,544;  -41,400;    0,000;41,94400
 367,48;    1,174;  -32,200;    0,000;33,37400
 367,49;    0,960;   18,800;    0,000;-17,84000
 367,50;    3,855;   22,000;    0,000;-18,14500
 367,51;   -0,217;  -26,200;    0,000;25,98300
 367,52;    3,601;   14,600;    0,000;-10,99900
 367,53;   -0,105;  -63,800;    0,000;63,69500
 367,54;    1,480;    0,600;    0,000; 0,88000
 367,55;    0,173;   21,200;    0,000;-21,02700
 367,56;    3,827;   -9,100;    0,000;12,92700
 367,57;    0,269;  -66,700;    0,000;66,96900
 367,58;    2,158;  -25,300;    0,000;27,45800
 367,59;    0,828;  -29,500;    0,000;30,32800
 367,60;    1,461;    5,400;    0,000;-3,93900
 367,61;    0,076;  -22,200;    0,000;22,27600
 367,62;    2,240;   45,700;    0,000;-43,46000
 367,64;    2,110;  -13,400;    0,000;15,51000
 367,65;    1,551;   15,700;    0,000;-14,14900
 367,66;    1,925;   35,900;    0,000;-33,97500
 367,67;    1,703;  -10,600;    0,000;12,30300
 367,68;    1,414;  -33,900;    0,000;35,31400
 367,69;    2,278;  -60,300;    0,000;62,57800
 367,70;    0,643;   53,800;    0,000;-53,15700
 367,71;    0,034;  -62,600;    0,000;62,63400
 367,72;   -0,497;  -52,400;    0,000;51,90300
 367,73;    3,313;   -1,700;    0,000; 5,01300
 367,74;    1,068;   -2,000;    0,000; 3,06800
 367,75;    3,881;    9,100;    0,000;-5,21900
 367,76;   -0,287;  -44,400;    0,000;44,11300
 367,77;    3,355;   32,100;    0,000;-28,74500
 367,78;   -1,615;  -19,600;    0,000;17,98500
 367,79;    1,524;   -1,200;    0,000; 2,72400
 367,81;   -0,086;    0,500;    0,000;-0,58600
 367,82;    3,815;  -44,400;    0,000;48,21500
 367,83;    2,112;   23,400;    0,000;-21,28800
 367,84;    0,658;  -40,400;    0,000;41,05800
 367,85;    0,121;  -39,300;    0,000;39,42100
 367,86;    3,374;  -34,500;    0,000;37,87400
 367,87;    2,404;  -48,600;    0,000;51,00400
 367,88;    1,893;  -11,000;    0,000;12,89300
 367,89;    0,136;   -2,400;    0,000; 2,53600
 367,90;    0,247;  -20,100;    0,000;20,34700
 367,91;    2,064;   -8,000;    0,000;10,06400
 367,92;    1,597;   -5,900;    0,000; 7,49700
 367,93;    0,165;   -0,800;    0,000; 0,96500
 367,94;    1,396;  -11,000;    0,000;12,39600
 367,95;    0,176;  -33,300;    0,000;33,47600
 367,96;    3,902;   48,600;    0,000;-44,69800
 367,97;    0,125;   -5,600;    0,000; 5,72500
 367,98;    1,036;  -38,600;    0,000;39,63600
 368,00;   -1,383;  -40,500;    0,000;39,11700
 368,01;    1,373;  -18,000;    0,000;19,37300
 368,02;    0,661;   43,500;    0,000;-42,83900
 368,03;    1,461;  -22,100;    0,000;23,56100
 368,04;    1,326;   31,000;    0,000;-29,67400
 368,05;    1,558;  -38,900;    0,000;40,45800
 368,06;    0,095;  -30,400;    0,000;30,49500
 368,07;    0,822;  -53,800;    0,000;54,62200
 368,08;   -0,409;  -21,100;    0,000;20,69100
 368,09;    2,466;   18,400;    0,000;-15,93400
 368,10;   -0,595;  -43,800;    0,000;43,20500
 368,11;    3,508;  -16,200;    0,000;19,70800
 368,12;    0,775;  -18,300;    0,000;19,07500
 368,13;    3,759;  -79,800;    0,000;83,55900
 368,14;    2,006;  -12,000;    0,000;14,00600
 368,15;    2,647;  -15,600;    0,000;18,24700
 368,16;    0,953;    2,300;    0,000;-1,34700
 368,17;    0,652;  -42,300;    0,000;42,95200
 368,18;   -2,072;  -35,000;    0,000;32,92800
 368,19;    1,281;  -36,900;    0,000;38,18100
 368,21;    1,848;    3,200;    0,000;-1,35200
 368,22;    1,496;   -7,800;    0,000; 9,29600
 368,23;   -1,370;  -18,700;    0,000;17,33000
 368,24;    0,746;  -14,700;    0,000;15,44600
 368,25;    1,938;   17,700;    0,000;-15,76200
 368,26;    0,512;   20,500;    0,000;-19,98800
 368,27;    0,302;    9,400;    0,000;-9,09800
 368,28;    2,803;  -22,700;    0,000;25,50300
 368,29;    1,033;  -35,900;    0,000;36,93300
 368,30;    4,232;   39,900;    0,000;-35,66800
 368,31;    2,044;    8,000;    0,000;-5,95600
 368,32;    3,639;  -16,300;    0,000;19,93900
 368,33;   -0,236;  -23,400;    0,000;23,16400
 368,34;   -0,017;  -46,000;    0,000;45,98300
 368,35;    0,852;   28,700;    0,000;-27,84800
 368,36;    0,554;  -12,900;    0,000;13,45400
 368,37;    0,763;  -42,800;    0,000;43,56300
 368,38;    0,948;  -16,000;    0,000;16,94800
 368,39;    2,145;   -8,900;    0,000;11,04500
 368,40;    1,212;  -16,000;    0,000;17,21200
 368,41;    1,772;  -13,000;    0,000;14,77200
 368,42;    2,458;   -6,100;    0,000; 8,55800
 368,43;    0,233;  -23,300;    0,000;23,53300
 368,44;    1,810;  -53,300;    0,000;55,11000
 368,46;    3,396;  -35,800;    0,000;39,19600
 368,47;    1,652;  -30,800;    0,000;32,45200
 368,48;    0,021;  -85,500;    0,000;85,52100
 368,49;   -0,652;    7,500;    0,000;-8,15200
 368,50;   -0,605;  -21,300;    0,000;20,69500
 368,51;    2,623;  -14,500;    0,000;17,12300
 368,52;    1,308;  -17,400;    0,000;18,70800
 368,53;   -0,224;  -28,000;    0,000;27,77600
 368,54;    0,616;  -39,900;    0,000;40,51600
 368,55;    2,650;    8,300;    0,000;-5,65000
 368,56;   -0,405;  -34,700;    0,000;34,29500
 368,57;    1,167;  -17,700;    0,000;18,86700
 368,58;    3,134;    7,200;    0,000;-4,06600
 368,59;    1,364;  -51,000;    0,000;52,36400
 368,60;   -1,435;  -11,600;    0,000;10,16500
 368,61;    1,648;    0,800;    0,000; 0,84800
 368,62;    1,994;  -36,000;    0,000;37,99400
 368,63;    2,043;  -33,900;    0,000;35,94300
 368,64;    0,023;   -7,200;    0,000; 7,22300
 368,65;    2,211;  -50,100;    0,000;52,31100
 368,66;    1,422;  -28,900;    0,000;30,32200
 368,67;    1,968;   11,800;    0,000;-9,83200
 368,68;   -1,173;  -67,500;    0,000;66,32700
 368,69;    2,035;  -12,400;    0,000;14,43500
 368,70;   -1,674;  -31,400;    0,000;29,72600
 368,71;    1,666;  -15,200;    0,000;16,86600
 368,72;   -0,138;  -43,300;    0,000;43,16200
 368,73;    2,346;  -17,700;    0,000;20,04600
 368,74;    1,209;   -4,500;    0,000; 5,70900
 368,76;   -0,203;   16,000;    0,000;-16,20300
 368,77;    0,498;  -80,000;    0,000;80,49800
 368,78;    1,790;   18,400;    0,000;-16,61000
 368,79;    1,016;  -15,900;    0,000;16,91600
 368,80;    3,349;  -13,500;    0,000;16,84900
 368,81;    1,229;  -54,500;    0,000;55,72900
 368,82;    2,855;  -43,200;    0,000;46,05500
 368,83;   -1,047;   24,100;    0,000;-25,14700
 368,84;    2,496;   55,500;    0,000;-53,00400
 368,85;   -0,647;  -41,400;    0,000;40,75300
 368,86;    3,578;  -40,600;    0,000;44,17800
 368,87;    0,684;    1,600;    0,000;-0,91600
 368,88;   -1,267;  -11,400;    0,000;10,13300
 368,89;    2,580;  -55,800;    0,000;58,38000
 368,90;    3,419;  -37,900;    0,000;41,31900
 368,91;    0,825;  -14,000;    0,000;14,82500
 368,92;    2,627;  -10,000;    0,000;12,62700
 368,93;    2,387;  -17,200;    0,000;19,58700
 368,94;    2,215;   13,800;    0,000;-11,58500
 368,95;    0,062;  -17,300;    0,000;17,36200
 368,96;    3,324;  -74,200;    0,000;77,52400
 368,97;   -0,328;  -36,500;    0,000;36,17200
 368,98;    2,277;   28,200;    0,000;-25,92300
 368,99;    2,197;  -14,100;    0,000;16,29700
 369,00;    0,733;    3,400;    0,000;-2,66700
 369,01;   -0,884;  -22,300;    0,000;21,41600
 369,02;    2,255;  -73,200;    0,000;75,45500
 369,03;    1,482;  -73,700;    0,000;75,18200
 369,04;   -0,907;    0,200;    0,000;-1,10700
 369,05;    0,491;  -36,200;    0,000;36,69100
 369,06;    2,251;  -41,500;    0,000;43,75100
 369,07;   -0,163;  -98,800;    0,000;98,63700
 369,08;    2,329;   19,800;    0,000;-17,47100
 369,09;    1,243;    1,900;    0,000;-0,65700
 369,10;    1,872;  -21,500;    0,000;23,37200
 369,11;    0,017;  -61,400;    0,000;61,41700
 369,12;    2,809;   44,200;    0,000;-41,39100
 369,13;    1,429;   -7,000;    0,000; 8,42900
 369,14;    1,763;   -9,100;    0,000;10,86300
 369,15;    0,283;  -68,100;    0,000;68,38300
 369,16;    0,704;  -28,100;    0,000;28,80400
 369,17;    0,092;  -32,300;    0,000;32,39200
 369,18;    1,505;   30,700;    0,000;-29,19500
 369,20;   -0,746;  -75,100;    0,000;74,35400
 369,21;    1,353;   -2,000;    0,000; 3,35300
 369,22;    1,740;  -49,100;    0,000;50,84000
 369,23;    1,599;  -40,800;    0,000;42,39900
 369,24;    2,046;  -24,900;    0,000;26,94600
 369,25;    2,342;  -70,000;    0,000;72,34200
 369,26;    2,320;    5,100;    0,000;-2,78000
 369,27;   -0,695;  -32,600;    0,000;31,90500
 369,28;   -0,189;  -19,600;    0,000;19,41100
 369,29;    2,567;   12,300;    0,000;-9,73300
 369,30;   -0,055;  -27,200;    0,000;27,14500
 369,31;    3,262;    1,300;    0,000; 1,96200
 369,32;    2,451;   -7,200;    0,000; 9,65100
 369,33;    1,345;    0,200;    0,000; 1,14500
 369,34;   -0,019;  -45,600;    0,000;45,58100
 369,35;    4,854;  -33,800;    0,000;38,65400
 369,36;    2,982;  -37,300;    0,000;40,28200
 369,37;    2,234;  -26,000;    0,000;28,23400
 369,38;    1,501;  -14,100;    0,000;15,60100
 369,39;    2,261;    9,200;    0,000;-6,93900
 369,40;    2,648;  -75,000;    0,000;77,64800
 369,41;    0,118;  -35,300;    0,000;35,41800
 369,42;   -1,041;    3,000;    0,000;-4,04100
 369,43;    3,223;  -10,600;    0,000;13,82300
 369,44;    1,674;  -15,400;    0,000;17,07400
 369,45;    2,197;  -12,200;    0,000;14,39700
 369,46;   -0,132;  -15,700;    0,000;15,56800
 369,47;    0,432;  -19,000;    0,000;19,43200
 369,48;    2,230;  -44,100;    0,000;46,33000
 369,49;    1,413;  -38,400;    0,000;39,81300
 369,50;    0,914;  -74,800;    0,000;75,71400
 369,51;    4,901;   30,300;    0,000;-25,39900
 369,52;    0,895;   10,200;    0,000;-9,30500
 369,53;    1,611;  -45,200;    0,000;46,81100
 369,54;    1,193;  -22,500;    0,000;23,69300
 369,55;    0,934;    2,100;    0,000;-1,16600
 369,56;   -1,836;    8,100;    0,000;-9,93600
 369,57;    3,263;   38,300;    0,000;-35,03700
 369,58;    3,880;  -58,100;    0,000;61,98000
 369,59;    4,203;   25,100;    0,000;-20,89700
 369,60;   -1,840;  -18,100;    0,000;16,26000
 369,61;    0,937;    3,600;    0,000;-2,66300
 369,62;    2,639;    5,800;    0,000;-3,16100
 369,63;    1,629;  -18,100;    0,000;19,72900
 369,64;    0,945;  -55,400;    0,000;56,34500
 369,65;    4,713;   -9,500;    0,000;14,21300
 369,66;   -0,257;  -26,500;    0,000;26,24300
 369,67;    4,968;   17,100;    0,000;-12,13200
 369,68;    0,808;  -11,300;    0,000;12,10800
 369,69;    4,650;    2,500;    0,000; 2,15000
 369,70;    1,192;  -67,900;    0,000;69,09200
 369,71;    1,577;  -20,600;    0,000;22,17700
 369,72;    2,533;  -83,200;    0,000;85,73300
 369,73;    3,047;  -47,500;    0,000;50,54700
 369,74;    0,577;  -38,400;    0,000;38,97700
 369,75;    2,321;  -16,100;    0,000;18,42100
 369,76;   -0,839;  -44,200;    0,000;43,36100
 369,77;    1,279;    7,200;    0,000;-5,92100
 369,78;   -0,140;   -4,500;    0,000; 4,36000
 369,79;    3,862;  -17,100;    0,000;20,96200
 369,80;    2,793;   -2,600;    0,000; 5,39300
 369,81;    2,571;   -2,100;    0,000; 4,67100
 369,82;   -0,338;   -2,200;    0,000; 1,86200
 369,83;    2,481;   53,000;    0,000;-50,51900
 369,84;    1,235;    3,300;    0,000;-2,06500
 369,85;    2,757;    5,300;    0,000;-2,54300
 369,86;    1,317;   -7,200;    0,000; 8,51700
 369,87;    2,084;   -1,400;    0,000; 3,48400
 369,88;   -0,193;  -67,800;    0,000;67,60700
 369,89;    2,641;   -2,200;    0,000; 4,84100
 369,90;   -1,108;  -22,600;    0,000;21,49200
 369,91;    2,025;  -23,300;    0,000;25,32500
 369,92;    0,739;   11,800;    0,000;-11,06100
 369,93;    1,203;    7,800;    0,000;-6,59700
 369,94;    0,102;  -57,700;    0,000;57,80200
 369,95;    0,041;    5,300;    0,000;-5,25900
 369,96;    0,505;  -17,800;    0,000;18,30500
 369,97;    0,524;  -50,600;    0,000;51,12400
 369,98;    0,259;    4,700;    0,000;-4,44100
 369,99;    2,288;  -47,100;    0,000;49,38800
 370,00;   -0,644;  -12,800;    0,000;12,15600
 370,01;    1,093;   17,400;    0,000;-16,30700
 370,02;    1,157;  -29,400;    0,000;30,55700
 370,03;    1,599;   53,700;    0,000;-52,10100
 370,04;   -1,825;   -2,300;    0,000; 0,47500
 370,05;    1,770;  -31,500;    0,000;33,27000
 370,06;    0,155;  -14,800;    0,000;14,95500
 370,07;    2,735;  -18,600;    0,000;21,33500
 370,08;    0,865;   -2,200;    0,000; 3,06500
 370,09;    2,637;   18,600;    0,000;-15,96300
 370,10;   -2,055;  -13,900;    0,000;11,84500
 370,11;    4,318;   -0,100;    0,000; 4,41800
 370,12;    1,593;    7,000;    0,000;-5,40700
 370,13;    4,490;   12,200;    0,000;-7,71000
 370,14;   -0,647;  -13,200;    0,000;12,55300
 370,15;    1,947;  -13,900;    0,000;15,84700
 370,16;   -0,824;   34,000;    0,000;-34,82400
 370,17;    1,192;  -16,600;    0,000;17,79200
 370,18;    0,513;  -40,200;    0,000;40,71300
 370,19;    0,778;   32,600;    0,000;-31,82200
 370,20;   -0,585;  -43,200;    0,000;42,61500
 370,21;    0,827;    4,200;    0,000;-3,37300
 370,22;    1,303;  -25,400;    0,000;26,70300
 370,23;   -0,240;  -60,400;    0,000;60,16000
 370,24;   -0,420;  -71,300;    0,000;70,88000
 370,25;    1,695;   52,800;    0,000;-51,10500
 370,25;   -1,861;  -64,300;    0,000;62,43900
 370,26;    2,323;  -26,200;    0,000;28,52300
 370,27;    0,979;   23,300;    0,000;-22,32100
 370,28;    1,788;   -0,600;    0,000; 2,38800
 370,29;    0,924;  -31,100;    0,000;32,02400
 370,30;    1,818;  -23,100;    0,000;24,91800
 370,31;    1,337;  -31,100;    0,000;32,43700
 370,32;    3,239;   68,000;    0,000;-64,76100
 370,33;   -0,781;  -44,600;    0,000;43,81900
 370,34;    2,287;   42,800;    0,000;-40,51300
 370,35;   -1,802;  -27,500;    0,000;25,69800
 370,36;   -0,452;   43,600;    0,000;-44,05200
 370,37;    1,807;  246,600;    0,000;-244,79300
 370,38;    1,599;  -31,100;    0,000;32,69900
 370,39;    0,105;  -47,500;    0,000;47,60500
 370,40;   -0,566;  -15,300;    0,000;14,73400
 370,41;    0,814;   13,800;    0,000;-12,98600
 370,42;    1,198;  -19,300;    0,000;20,49800
 370,43;   -0,708;  -41,600;    0,000;40,89200
 370,44;    3,797;   17,300;    0,000;-13,50300
 370,45;    0,618;  -19,900;    0,000;20,51800
 370,46;    0,414;  -44,500;    0,000;44,91400
 370,47;    2,256;  -53,700;    0,000;55,95600
 370,48;    1,803;    3,000;    0,000;-1,19700
 370,49;    0,951;  -51,100;    0,000;52,05100
 370,50;    0,383;  -29,200;    0,000;29,58300
 370,51;    0,172;  -38,500;    0,000;38,67200
 370,52;    2,077;   52,900;    0,000;-50,82300
 370,53;   -0,492;  -21,100;    0,000;20,60800
 370,54;    3,981;   -4,000;    0,000; 7,98100
 370,55;    3,080;  -11,500;    0,000;14,58000
 370,56;    2,096;   15,600;    0,000;-13,50400
 370,57;    1,268;  -63,700;    0,000;64,96800
 370,58;    4,225;   -2,300;    0,000; 6,52500
 370,59;    3,897;   33,000;    0,000;-29,10300
 370,60;    1,373;  -56,500;    0,000;57,87300
 370,61;    2,530;   19,300;    0,000;-16,77000
 370,62;    2,567;   14,400;    0,000;-11,83300
 370,63;    1,164;  -43,100;    0,000;44,26400
 370,64;   -0,385;  -55,700;    0,000;55,31500
 370,65;    1,969;  -11,300;    0,000;13,26900
 370,66;    1,197;   27,200;    0,000;-26,00300
 370,67;   -0,481;  -32,800;    0,000;32,31900
 370,67;    0,832;   -4,600;    0,000; 5,43200
 370,68;   -1,230;  -44,400;    0,000;43,17000
 370,69;   -0,353;  -60,600;    0,000;60,24700
 370,70;   -0,300;  -92,600;    0,000;92,30000
 370,71;    2,143;   33,400;    0,000;-31,25700
 370,72;   -0,982;    0,700;    0,000;-1,68200
 370,73;    0,044;   -9,900;    0,000; 9,94400
 370,74;    2,316;  -36,500;    0,000;38,81600
 370,75;    1,191;    3,000;    0,000;-1,80900
 370,76;    1,830;  -67,600;    0,000;69,43000
 370,77;    1,040;  -37,200;    0,000;38,24000
 370,78;    0,080;  -89,100;    0,000;89,18000
 370,79;    2,115;   61,900;    0,000;-59,78500
 370,80;    1,156;  -18,600;    0,000;19,75600
 370,81;    0,469;  -24,900;    0,000;25,36900
 370,82;    0,782;  -22,600;    0,000;23,38200
 370,83;    2,254;  -51,500;    0,000;53,75400
 370,84;   -0,736;  -65,000;    0,000;64,26400
 370,85;    2,409;   18,900;    0,000;-16,49100
 370,86;   -0,159;  -10,900;    0,000;10,74100
 370,87;    1,885;  -66,200;    0,000;68,08500
 370,88;   -1,081;  -11,900;    0,000;10,81900
 370,89;    2,413;  -31,800;    0,000;34,21300
 370,90;    2,558;    9,400;    0,000;-6,84200
 370,91;    3,548;    2,700;    0,000; 0,84800
 370,92;   -1,559;  -41,200;    0,000;39,64100
 370,93;    3,195;  -47,300;    0,000;50,49500
 370,94;    0,798;   -2,100;    0,000; 2,89800
 370,95;    2,492;  -17,400;    0,000;19,89200
 370,95;   -1,340;   -3,900;    0,000; 2,56000
 370,96;    1,901;  -56,200;    0,000;58,10100
 370,97;   -0,961;   -6,100;    0,000; 5,13900
 370,98;    1,186;  -15,200;    0,000;16,38600
 370,99;    1,304;    5,900;    0,000;-4,59600
 371,00;    1,815;  -40,600;    0,000;42,41500
 371,01;    2,275;  -26,200;    0,000;28,47500
 371,02;    1,727;   89,700;    0,000;-87,97300
 371,03;    1,508;  -31,700;    0,000;33,20800
 371,04;    1,120;  -40,200;    0,000;41,32000
 371,05;   -0,718;  -72,300;    0,000;71,58200
 371,06;    4,647;   11,400;    0,000;-6,75300
 371,07;    3,618;   30,600;    0,000;-26,98200
 371,08;    0,635;  -25,100;    0,000;25,73500
 371,09;    0,343;  -55,400;    0,000;55,74300
 371,10;    1,814;   26,400;    0,000;-24,58600
 371,11;   -0,558;  -24,800;    0,000;24,24200
 371,12;    1,703;  -40,300;    0,000;42,00300
 371,13;   -0,513;  -54,800;    0,000;54,28700
 371,14;    0,569;   33,400;    0,000;-32,83100
 371,15;   -0,197;  -11,200;    0,000;11,00300
 371,16;    1,899;  -29,500;    0,000;31,39900
 371,17;   -0,112;  -15,400;    0,000;15,28800
 371,17;    0,941;   67,200;    0,000;-66,25900
 371,18;    2,088;  -14,500;    0,000;16,58800
 371,19;    2,268;  -28,800;    0,000;31,06800
 371,20;   -0,716;   -1,300;    0,000; 0,58400
 371,21;    1,462;  -24,600;    0,000;26,06200
 371,22;   -0,654;   10,200;    0,000;-10,85400
 371,23;    2,123;  -19,700;    0,000;21,82300
 371,24;   -0,754;  -83,900;    0,000;83,14600
 371,25;    2,253;  -18,300;    0,000;20,55300
 371,26;   -0,564;  -32,400;    0,000;31,83600
 371,27;    1,873;  -57,200;    0,000;59,07300
 371,28;   -1,611;  -64,800;    0,000;63,18900
 371,29;    0,161;    1,100;    0,000;-0,93900
 371,30;   -2,037;    4,200;    0,000;-6,23700
 371,31;    1,282;   32,100;    0,000;-30,81800
 371,32;   -2,218;    7,500;    0,000;-9,71800
 371,33;    3,298;  -43,000;    0,000;46,29800
 371,34;    0,294;   29,200;    0,000;-28,90600
 371,35;    1,579;  -13,700;    0,000;15,27900
 371,36;    1,101;   13,300;    0,000;-12,19900
 371,36;    1,458;  -15,000;    0,000;16,45800
 371,37;   -1,168;  -63,800;    0,000;62,63200
 371,38;    3,536;  -54,500;    0,000;58,03600
 371,39;    1,368;  -39,200;    0,000;40,56800
 371,40;    1,214;    4,900;    0,000;-3,68600
 371,41;   -1,068;  -41,100;    0,000;40,03200
 371,42;    0,258; -107,400;    0,000;107,65800
 371,43;    1,133;  -57,800;    0,000;58,93300
 371,44;   -0,847;   19,500;    0,000;-20,34700
 371,45;   -0,013;  -30,100;    0,000;30,08700
 371,46;   -0,559;  -14,800;    0,000;14,24100
 371,47;    0,742;   35,700;    0,000;-34,95800
 371,48;    3,003;  -35,600;    0,000;38,60300
 371,49;    0,135;  -37,700;    0,000;37,83500
 371,50;    0,021;  -19,800;    0,000;19,82100
 371,51;   -0,451;  -26,800;    0,000;26,34900

